Zeit Kanal A Kanal B
(ms) (mV) (V)

-50.01217000 2.46742200 -1.59025800
-49.99169000 2.91604400 -1.60795900
-49.97121000 2.01879900 -1.62559900
-49.95073000 2.91604400 -1.59025800
-49.93025000 2.46742200 -1.57261900
-49.90977000 2.46742200 -1.59025800
-49.88929000 3.36466600 -1.57261900
-49.86881000 2.91604400 -1.59025800
-49.84833000 3.36466600 -1.59025800
-49.82785000 2.91604400 -1.59025800
-49.80737000 2.46742200 -1.60795900
-49.78689000 1.57017700 -1.60795900
-49.76641000 2.91604400 -1.59025800
-49.74593000 3.36466600 -1.55497900
-49.72545000 2.46742200 -1.59025800
-49.70497000 3.36466600 -1.57261900
-49.68449000 2.91604400 -1.59025800
-49.66401000 2.46742200 -1.60795900
-49.64353000 1.57017700 -1.62559900
-49.62305000 2.46742200 -1.60795900
-49.60257000 1.57017700 -1.60795900
-49.58208000 2.91604400 -1.59025800
-49.56161000 3.36466600 -1.55497900
-49.54113000 2.91604400 -1.59025800
-49.52065000 3.36466600 -1.57261900
-49.50017000 2.91604400 -1.59025800
-49.47969000 2.91604400 -1.60795900
-49.45921000 2.01879900 -1.60795900
-49.43872000 2.91604400 -1.59025800
-49.41825000 2.91604400 -1.55497900
-49.39777000 2.46742200 -1.59025800
-49.37729000 3.36466600 -1.57261900
-49.35681000 2.91604400 -1.59025800
-49.33633000 2.91604400 -1.59025800
-49.31585000 2.91604400 -1.59025800
-49.29536000 2.46742200 -1.60795900
-49.27489000 2.01879900 1.56956700
-49.25441000 2.91604400 1.58720700
-49.23393000 3.36466600 1.62254700
-49.21345000 2.91604400 1.58720700
-49.19297000 4.26191000 1.62254700
-49.17249000 5.15915400 1.60484600
-49.15201000 5.15915400 1.58720700
-49.13153000 3.36466600 1.55192700
-49.11105000 4.71053200 1.58720700
-49.09057000 3.81328800 1.58720700
-49.07009000 4.26191000 1.60484600
-49.04961000 5.15915400 1.62254700
-49.02913000 4.26191000 1.60484600
-49.00865000 4.71053200 1.62254700
-48.98817000 3.81328800 1.60484600
-48.96769000 3.81328800 1.58720700
-48.94721000 2.91604400 1.58720700
-48.92673000 3.36466600 1.60484600
-48.90625000 4.26191000 1.64018700
-48.88577000 3.36466600 1.60484600
-48.86529000 4.26191000 1.62254700
-48.84481000 3.36466600 1.60484600
-48.82433000 3.36466600 1.60484600
-48.80385000 3.36466600 1.62254700
-48.78337000 2.91604400 1.60484600
-48.76289000 2.46742200 1.58720700
-48.74240000 3.36466600 1.60484600
-48.72193000 3.36466600 1.62254700
-48.70145000 3.36466600 1.62254700
-48.68097000 3.36466600 1.62254700
-48.66049000 2.91604400 1.58720700
-48.64001000 2.91604400 1.58720700
-48.61953000 2.01879900 1.56956700
-48.59904000 2.91604400 1.58720700
-48.57857000 2.91604400 1.62254700
-48.55809000 2.91604400 1.60484600
-48.53761000 3.36466600 1.62254700
-48.51713000 2.91604400 1.58720700
-48.49665000 3.36466600 1.60484600
-48.47617000 2.91604400 1.60484600
-48.45569000 2.91604400 1.58720700
-48.43521000 2.01879900 1.58720700
-48.41473000 2.91604400 1.58720700
-48.39425000 3.36466600 1.64018700
-48.37377000 2.91604400 1.58720700
-48.35329000 3.36466600 1.62254700
-48.33281000 2.91604400 1.58720700
-48.31233000 2.91604400 1.58720700
-48.29185000 2.01879900 1.58720700
-48.27137000 2.91604400 1.58720700
-48.25089000 2.01879900 1.58720700
-48.23041000 2.91604400 1.60484600
-48.20993000 3.36466600 1.62254700
-48.18945000 2.91604400 1.58720700
-48.16897000 3.36466600 1.60484600
-48.14849000 2.91604400 1.58720700
-48.12801000 2.46742200 1.58720700
-48.10753000 2.01879900 1.58720700
-48.08705000 2.91604400 1.58720700
-48.06657000 3.36466600 1.62254700
-48.04609000 2.46742200 -1.55497900
-48.02561000 3.36466600 -1.57261900
-48.00513000 2.46742200 -1.59025800
-47.98465000 2.91604400 -1.60795900
-47.96417000 2.46742200 -1.60795900
-47.94369000 2.46742200 -1.60795900
-47.92321000 1.57017700 -1.60795900
-47.90273000 2.46742200 -1.60795900
-47.88225000 2.91604400 -1.57261900
-47.86177000 2.91604400 -1.60795900
-47.84129000 3.36466600 -1.59025800
-47.82081000 2.91604400 -1.60795900
-47.80033000 2.91604400 -1.60795900
-47.77985000 1.57017700 -1.64323900
-47.75937000 2.46742200 -1.60795900
-47.73889000 1.57017700 -1.60795900
-47.71841000 2.91604400 -1.59025800
-47.69793000 3.36466600 -1.57261900
-47.67744000 2.91604400 -1.60795900
-47.65697000 3.36466600 -1.59025800
-47.63649000 2.91604400 -1.60795900
-47.61601000 2.91604400 -1.60795900
-47.59553000 2.01879900 -1.60795900
-47.57505000 2.46742200 -1.60795900
-47.55457000 2.91604400 -1.55497900
-47.53408000 2.91604400 -1.60795900
-47.51361000 3.36466600 -1.57261900
-47.49313000 2.46742200 -1.59025800
-47.47265000 2.91604400 -1.60795900
-47.45217000 2.91604400 -1.59025800
-47.43169000 2.91604400 -1.60795900
-47.41121000 2.01879900 -1.60795900
-47.39073000 2.91604400 -1.59025800
-47.37025000 2.91604400 -1.57261900
-47.34977000 2.91604400 -1.59025800
-47.32929000 3.36466600 -1.59025800
-47.30881000 2.46742200 -1.59025800
-47.28833000 2.91604400 -1.60795900
-47.26785000 1.57017700 -1.62559900
-47.24737000 2.91604400 -1.60795900
-47.22689000 2.46742200 -1.59025800
-47.20641000 2.91604400 -1.59025800
-47.18593000 3.36466600 -1.55497900
-47.16545000 2.91604400 -1.59025800
-47.14497000 3.36466600 -1.59025800
-47.12449000 2.91604400 -1.59025800
-47.10401000 2.46742200 -1.60795900
-47.08353000 2.01879900 -1.60795900
-47.06305000 2.91604400 -1.59025800
-47.04257000 3.36466600 -1.55497900
-47.02209000 2.91604400 -1.59025800
-47.00161000 3.36466600 -1.57261900
-46.98112000 2.91604400 -1.59025800
-46.96065000 2.91604400 -1.60795900
-46.94017000 2.01879900 -1.60795900
-46.91969000 2.46742200 -1.59025800
-46.89921000 1.57017700 -1.60795900
-46.87873000 2.91604400 -1.57261900
-46.85825000 3.36466600 -1.55497900
-46.83776000 2.91604400 -1.59025800
-46.81729000 3.36466600 -1.57261900
-46.79681000 2.91604400 1.58720700
-46.77633000 2.91604400 1.58720700
-46.75585000 2.01879900 1.58720700
-46.73537000 2.91604400 1.58720700
-46.71489000 15.03189000 1.62254700
-46.69441000 14.58327000 1.60484600
-46.67393000 14.13465000 1.62254700
-46.65345000 12.78726000 1.58720700
-46.63297000 12.33863000 1.58720700
-46.61249000 10.99277000 1.62254700
-46.59201000 10.54414000 1.58720700
-46.57153000 9.19827800 1.58720700
-46.55105000 9.19827800 1.58720700
-46.53057000 9.64690000 1.64018700
-46.51009000 8.74965700 1.58720700
-46.48961000 8.74965700 1.62254700
-46.46913000 7.40226500 1.60484600
-46.44865000 6.95364200 1.58720700
-46.42817000 5.15915400 1.56956700
-46.40769000 6.05639800 1.58720700
-46.38721000 5.15915400 1.58720700
-46.36673000 6.05639800 1.60484600
-46.34625000 6.50502000 1.62254700
-46.32577000 5.15915400 1.60484600
-46.30529000 6.05639800 1.62254700
-46.28481000 5.15915400 1.60484600
-46.26433000 4.71053200 1.58720700
-46.24385000 3.81328800 1.58720700
-46.22337000 4.26191000 1.60484600
-46.20289000 4.71053200 1.64018700
-46.18241000 4.26191000 1.60484600
-46.16193000 4.71053200 1.62254700
-46.14145000 3.81328800 1.58720700
-46.12097000 4.26191000 1.58720700
-46.10049000 3.81328800 1.62254700
-46.08001000 3.36466600 1.58720700
-46.05953000 2.91604400 1.58720700
-46.03905000 3.36466600 1.60484600
-46.01857000 3.81328800 1.62254700
-45.99809000 3.36466600 1.60484600
-45.97761000 4.26191000 1.62254700
-45.95713000 3.36466600 1.60484600
-45.93665000 3.36466600 1.58720700
-45.91616000 2.46742200 1.56956700
-45.89569000 3.36466600 1.58720700
-45.87521000 2.91604400 1.58720700
-45.85473000 3.36466600 1.58720700
-45.83425000 3.81328800 1.62254700
-45.81377000 3.36466600 1.58720700
-45.79329000 3.36466600 1.58720700
-45.77280000 2.91604400 1.58720700
-45.75233000 3.36466600 1.58720700
-45.73185000 2.46742200 1.58720700
-45.71137000 3.36466600 1.58720700
-45.69089000 3.36466600 1.62254700
-45.67041000 3.36466600 1.58720700
-45.64993000 3.81328800 1.62254700
-45.62945000 2.91604400 1.58720700
-45.60897000 3.36466600 1.58720700
-45.58849000 3.36466600 1.56956700
-45.56801000 2.91604400 -1.60795900
-45.54753000 2.46742200 -1.60795900
-45.52705000 2.91604400 -1.59025800
-45.50657000 3.36466600 -1.57261900
-45.48609000 2.91604400 -1.60795900
-45.46561000 3.36466600 -1.59025800
-45.44513000 2.91604400 -1.60795900
-45.42465000 2.91604400 -1.60795900
-45.40417000 2.46742200 -1.60795900
-45.38369000 2.91604400 -1.60795900
-45.36320000 2.91604400 -1.57261900
-45.34273000 2.91604400 -1.60795900
-45.32225000 3.36466600 -1.57261900
-45.30177000 2.91604400 -1.60795900
-45.28129000 3.36466600 -1.60795900
-45.26081000 2.91604400 -1.60795900
-45.24033000 2.91604400 -1.60795900
-45.21984000 2.46742200 -1.60795900
-45.19937000 2.91604400 -1.59025800
-45.17889000 3.36466600 -1.57261900
-45.15841000 2.91604400 -1.59025800
-45.13793000 3.36466600 -1.59025800
-45.11745000 2.91604400 -1.59025800
-45.09697000 2.91604400 -1.60795900
-45.07648000 1.57017700 -1.62559900
-45.05601000 2.91604400 -1.60795900
-45.03553000 2.46742200 -1.60795900
-45.01505000 2.91604400 -1.59025800
-44.99457000 3.36466600 -1.57261900
-44.97409000 2.91604400 -1.59025800
-44.95361000 3.36466600 -1.59025800
-44.93313000 2.91604400 -1.60795900
-44.91265000 2.91604400 -1.60795900
-44.89217000 2.46742200 -1.60795900
-44.87169000 2.91604400 -1.59025800
-44.85121000 3.36466600 -1.55497900
-44.83073000 2.91604400 -1.59025800
-44.81025000 3.36466600 -1.57261900
-44.78977000 2.91604400 -1.59025800
-44.76929000 3.36466600 -1.59025800
-44.74881000 2.91604400 -1.59025800
-44.72833000 2.91604400 -1.60795900
-44.70785000 2.01879900 -1.60795900
-44.68737000 2.91604400 -1.59025800
-44.66689000 3.36466600 -1.57261900
-44.64641000 2.91604400 -1.59025800
-44.62593000 3.36466600 -1.57261900
-44.60545000 2.91604400 -1.59025800
-44.58497000 2.91604400 -1.60795900
-44.56449000 1.57017700 -1.62559900
-44.54401000 2.91604400 -1.59025800
-44.52353000 2.46742200 -1.59025800
-44.50305000 2.91604400 -1.59025800
-44.48257000 3.36466600 -1.55497900
-44.46209000 2.91604400 -1.59025800
-44.44161000 3.36466600 -1.59025800
-44.42113000 2.91604400 -1.59025800
-44.40065000 2.91604400 -1.59025800
-44.38017000 2.01879900 -1.60795900
-44.35969000 2.91604400 -1.59025800
-44.33921000 3.36466600 1.62254700
-44.31873000 2.91604400 1.58720700
-44.29825000 3.36466600 1.62254700
-44.27777000 2.91604400 1.58720700
-44.25729000 16.37776000 1.58720700
-44.23681000 17.72363000 1.58720700
-44.21633000 15.03189000 1.58720700
-44.19585000 13.68450000 1.58720700
-44.17537000 13.23588000 1.62254700
-44.15488000 12.78726000 1.62254700
-44.13441000 11.89001000 1.60484600
-44.11393000 11.44139000 1.62254700
-44.09345000 10.09552000 1.60484600
-44.07297000 9.64690000 1.58720700
-44.05249000 8.74965700 1.58720700
-44.03201000 8.74965700 1.58720700
-44.01152000 7.40226500 1.62254700
-43.99105000 7.85088700 1.60484600
-43.97057000 8.30103400 1.62254700
-43.95009000 6.95364200 1.62254700
-43.92961000 6.95364200 1.58720700
-43.90913000 6.50502000 1.58720700
-43.88865000 6.05639800 1.58720700
-43.86817000 4.71053200 1.58720700
-43.84769000 5.60777600 1.62254700
-43.82721000 6.05639800 1.64018700
-43.80673000 5.15915400 1.62254700
-43.78625000 5.15915400 1.62254700
-43.76577000 4.71053200 1.60484600
-43.74529000 4.71053200 1.58720700
-43.72481000 4.26191000 1.58720700
-43.70433000 4.26191000 1.58720700
-43.68385000 3.36466600 1.58720700
-43.66337000 4.26191000 1.62254700
-43.64289000 4.26191000 1.62254700
-43.62241000 3.81328800 1.58720700
-43.60192000 4.26191000 1.62254700
-43.58145000 3.36466600 1.58720700
-43.56097000 3.36466600 1.58720700
-43.54049000 2.91604400 1.58720700
-43.52001000 3.36466600 1.60484600
-43.49953000 3.36466600 1.62254700
-43.47905000 3.36466600 1.58720700
-43.45856000 3.81328800 1.62254700
-43.43809000 3.36466600 1.60484600
-43.41761000 3.36466600 1.58720700
-43.39713000 3.36466600 1.58720700
-43.37665000 2.91604400 1.58720700
-43.35617000 2.46742200 1.58720700
-43.33569000 3.36466600 1.58720700
-43.31520000 3.36466600 1.62254700
-43.29473000 3.36466600 1.58720700
-43.27425000 3.36466600 1.62254700
-43.25377000 2.91604400 1.58720700
-43.23329000 2.91604400 1.58720700
-43.21281000 2.01879900 1.55192700
-43.19233000 2.91604400 1.58720700
-43.17185000 2.46742200 1.58720700
-43.15137000 2.91604400 1.60484600
-43.13089000 3.36466600 1.62254700
-43.11041000 2.91604400 -1.57261900
-43.08993000 3.36466600 -1.59025800
-43.06945000 2.91604400 -1.60795900
-43.04897000 2.91604400 -1.60795900
-43.02849000 2.01879900 -1.62559900
-43.00801000 2.91604400 -1.60795900
-42.98753000 3.36466600 -1.55497900
-42.96705000 2.91604400 -1.60795900
-42.94657000 3.36466600 -1.59025800
-42.92609000 2.91604400 -1.60795900
-42.90561000 2.91604400 -1.60795900
-42.88513000 2.91604400 -1.60795900
-42.86465000 2.46742200 -1.60795900
-42.84417000 2.01879900 -1.60795900
-42.82369000 2.91604400 -1.59025800
-42.80321000 3.36466600 -1.57261900
-42.78273000 2.91604400 -1.59025800
-42.76225000 3.36466600 -1.59025800
-42.74177000 2.91604400 -1.59025800
-42.72129000 2.91604400 -1.60795900
-42.70081000 2.01879900 -1.62559900
-42.68033000 2.91604400 -1.59025800
-42.65985000 2.46742200 -1.59025800
-42.63937000 2.91604400 -1.60795900
-42.61889000 3.36466600 -1.57261900
-42.59841000 2.91604400 -1.60795900
-42.57793000 3.36466600 -1.60795900
-42.55745000 2.91604400 -1.59025800
-42.53697000 2.91604400 -1.60795900
-42.51649000 2.01879900 -1.60795900
-42.49601000 2.91604400 -1.59025800
-42.47553000 3.36466600 -1.55497900
-42.45505000 2.91604400 -1.59025800
-42.43457000 3.36466600 -1.59025800
-42.41409000 2.91604400 -1.59025800
-42.39360000 2.91604400 -1.60795900
-42.37313000 3.81328800 -1.60795900
-42.35265000 2.91604400 -1.59025800
-42.33217000 2.46742200 -1.60795900
-42.31169000 2.91604400 -1.59025800
-42.29121000 3.36466600 -1.57261900
-42.27073000 2.91604400 -1.59025800
-42.25024000 3.36466600 -1.57261900
-42.22977000 2.91604400 -1.59025800
-42.20929000 2.46742200 -1.60795900
-42.18881000 2.01879900 -1.60795900
-42.16833000 2.91604400 -1.59025800
-42.14785000 2.91604400 -1.55497900
-42.12737000 2.91604400 -1.59025800
-42.10689000 3.36466600 -1.55497900
-42.08641000 2.91604400 -1.59025800
-42.06593000 3.36466600 -1.59025800
-42.04545000 2.46742200 -1.59025800
-42.02497000 2.46742200 -1.59025800
-42.00449000 2.01879900 -1.60795900
-41.98400000 2.91604400 -1.59025800
-41.96353000 2.91604400 -1.55497900
-41.94305000 2.91604400 -1.59025800
-41.92257000 3.36466600 -1.57261900
-41.90209000 2.91604400 -1.59025800
-41.88161000 2.91604400 1.53422700
-41.86113000 1.57017700 1.55192700
-41.84064000 2.46742200 1.56956700
-41.82017000 2.01879900 1.58720700
-41.79969000 2.91604400 1.58720700
-41.77921000 17.27500000 1.62254700
-41.75873000 15.92914000 1.58720700
-41.73825000 15.48051000 1.62254700
-41.71777000 14.13465000 1.60484600
-41.69728000 12.33863000 1.58720700
-41.67681000 11.44139000 1.58720700
-41.65633000 10.99277000 1.58720700
-41.63585000 10.54414000 1.64018700
-41.61537000 10.09552000 1.60484600
-41.59489000 10.09552000 1.62254700
-41.57441000 8.74965700 1.62254700
-41.55393000 8.74965700 1.58720700
-41.53345000 8.30103400 1.60484600
-41.51297000 7.85088700 1.58720700
-41.49249000 6.50502000 1.58720700
-41.47201000 6.50502000 1.62254700
-41.45153000 6.95364200 1.62254700
-41.43105000 6.50502000 1.60484600
-41.41057000 6.50502000 1.62254700
-41.39009000 5.60777600 1.60484600
-41.36961000 5.15915400 1.58720700
-41.34913000 3.81328800 1.56956700
-41.32865000 4.71053200 1.60484600
-41.30817000 4.26191000 1.58720700
-41.28769000 4.71053200 1.60484600
-41.26721000 5.15915400 1.62254700
-41.24673000 4.26191000 1.58720700
-41.22625000 4.71053200 1.60484600
-41.20577000 3.81328800 1.60484600
-41.18529000 3.81328800 1.58720700
-41.16481000 3.36466600 1.58720700
-41.14433000 3.36466600 1.60484600
-41.12385000 4.26191000 1.64018700
-41.10337000 3.36466600 1.58720700
-41.08289000 4.26191000 1.62254700
-41.06241000 3.36466600 1.58720700
-41.04193000 3.36466600 1.58720700
-41.02145000 4.26191000 1.58720700
-41.00097000 2.91604400 1.58720700
-40.98049000 2.46742200 1.58720700
-40.96001000 3.36466600 1.58720700
-40.93953000 3.36466600 1.62254700
-40.91905000 3.36466600 1.58720700
-40.89857000 3.36466600 1.60484600
-40.87809000 2.91604400 1.62254700
-40.85761000 2.91604400 1.58720700
-40.83713000 2.01879900 1.58720700
-40.81665000 2.91604400 1.58720700
-40.79617000 2.91604400 1.62254700
-40.77569000 2.91604400 1.58720700
-40.75521000 3.36466600 1.62254700
-40.73473000 2.91604400 1.58720700
-40.71425000 3.36466600 1.58720700
-40.69377000 2.91604400 1.58720700
-40.67329000 2.91604400 1.58720700
-40.65281000 1.57017700 1.58720700
-40.63233000 2.91604400 -1.59025800
-40.61185000 2.91604400 -1.57261900
-40.59137000 2.46742200 -1.59025800
-40.57089000 3.36466600 -1.59025800
-40.55041000 2.46742200 -1.60795900
-40.52993000 2.91604400 -1.62559900
-40.50945000 1.57017700 -1.62559900
-40.48896000 2.46742200 -1.60795900
-40.46849000 1.57017700 -1.60795900
-40.44801000 2.91604400 -1.59025800
-40.42753000 3.36466600 -1.57261900
-40.40705000 2.46742200 -1.60795900
-40.38657000 3.36466600 -1.59025800
-40.36609000 2.46742200 -1.60795900
-40.34561000 2.46742200 -1.60795900
-40.32513000 1.57017700 -1.62559900
-40.30465000 2.46742200 -1.60795900
-40.28417000 2.91604400 -1.55497900
-40.26369000 2.91604400 -1.60795900
-40.24321000 2.91604400 -1.57261900
-40.22272000 2.91604400 -1.59025800
-40.20225000 2.91604400 -1.60795900
-40.18177000 2.91604400 -1.59025800
-40.16129000 2.46742200 -1.60795900
-40.14081000 1.57017700 -1.60795900
-40.12033000 2.91604400 -1.59025800
-40.09985000 2.91604400 -1.57261900
-40.07936000 2.91604400 -1.59025800
-40.05889000 3.36466600 -1.59025800
-40.03841000 2.91604400 -1.59025800
-40.01793000 2.46742200 -1.60795900
-39.99745000 1.57017700 -1.62559900
-39.97697000 2.46742200 -1.59025800
-39.95649000 2.01879900 -1.60795900
-39.93600000 2.91604400 -1.59025800
-39.91553000 3.36466600 -1.57261900
-39.89505000 2.91604400 -1.59025800
-39.87457000 2.91604400 -1.59025800
-39.85409000 2.91604400 -1.59025800
-39.83361000 2.91604400 -1.60795900
-39.81313000 1.57017700 -1.60795900
-39.79265000 2.46742200 -1.59025800
-39.77217000 3.36466600 -1.55497900
-39.75169000 2.91604400 -1.59025800
-39.73121000 3.36466600 -1.57261900
-39.71073000 2.91604400 -1.59025800
-39.69025000 2.91604400 -1.59025800
-39.66977000 2.46742200 -1.59025800
-39.64929000 2.91604400 -1.59025800
-39.62881000 1.57017700 -1.60795900
-39.60833000 2.91604400 -1.59025800
-39.58785000 2.91604400 -1.57261900
-39.56737000 2.46742200 -1.59025800
-39.54689000 3.36466600 -1.57261900
-39.52641000 2.91604400 -1.59025800
-39.50593000 2.46742200 -1.59025800
-39.48545000 2.01879900 -1.60795900
-39.46497000 2.91604400 -1.59025800
-39.44449000 2.46742200 -1.55497900
-39.42401000 2.46742200 -1.57261900
-39.40353000 3.36466600 1.62254700
-39.38305000 2.91604400 1.58720700
-39.36257000 2.91604400 1.58720700
-39.34209000 2.91604400 1.60484600
-39.32161000 4.71053200 1.58720700
-39.30113000 3.81328800 1.58720700
-39.28065000 4.71053200 1.58720700
-39.26017000 5.15915400 1.64018700
-39.23969000 4.26191000 1.62254700
-39.21921000 4.71053200 1.62254700
-39.19873000 4.26191000 1.58720700
-39.17825000 4.26191000 1.58720700
-39.15777000 2.91604400 1.56956700
-39.13729000 3.36466600 1.58720700
-39.11681000 2.91604400 1.58720700
-39.09633000 3.36466600 1.62254700
-39.07585000 3.81328800 1.62254700
-39.05537000 3.36466600 1.62254700
-39.03489000 3.81328800 1.62254700
-39.01441000 3.36466600 1.60484600
-38.99393000 3.36466600 1.58720700
-38.97345000 2.46742200 1.58720700
-38.95297000 2.91604400 1.60484600
-38.93249000 3.36466600 1.62254700
-38.91201000 3.36466600 1.58720700
-38.89153000 3.36466600 1.62254700
-38.87105000 2.91604400 1.60484600
-38.85057000 3.36466600 1.58720700
-38.83009000 2.91604400 1.60484600
-38.80961000 2.91604400 1.58720700
-38.78913000 2.46742200 1.58720700
-38.76865000 2.91604400 1.62254700
-38.74817000 3.36466600 1.62254700
-38.72768000 2.91604400 1.60484600
-38.70721000 3.36466600 1.62254700
-38.68673000 2.91604400 1.60484600
-38.66625000 2.91604400 1.58720700
-38.64577000 1.57017700 1.56956700
-38.62529000 2.91604400 1.58720700
-38.60481000 2.46742200 1.60484600
-38.58433000 2.91604400 1.58720700
-38.56385000 3.36466600 1.62254700
-38.54337000 2.91604400 1.58720700
-38.52289000 3.36466600 1.58720700
-38.50241000 2.91604400 1.58720700
-38.48193000 2.91604400 1.58720700
-38.46145000 1.57017700 1.58720700
-38.44097000 2.91604400 1.58720700
-38.42049000 3.36466600 1.62254700
-38.40001000 2.46742200 1.58720700
-38.37953000 3.36466600 1.62254700
-38.35905000 2.91604400 1.58720700
-38.33857000 2.91604400 1.58720700
-38.31808000 3.36466600 1.58720700
-38.29761000 2.46742200 1.58720700
-38.27713000 1.57017700 1.58720700
-38.25665000 2.91604400 1.58720700
-38.23617000 2.91604400 1.62254700
-38.21569000 2.91604400 1.58720700
-38.19521000 3.36466600 1.60484600
-38.17472000 2.46742200 -1.59025800
-38.15425000 2.46742200 -1.60795900
-38.13377000 1.57017700 -1.62559900
-38.11329000 2.46742200 -1.60795900
-38.09281000 2.46742200 -1.59025800
-38.07233000 2.91604400 -1.60795900
-38.05185000 3.36466600 -1.59025800
-38.03137000 2.46742200 -1.60795900
-38.01089000 2.91604400 -1.60795900
-37.99041000 2.91604400 -1.59025800
-37.96993000 2.46742200 -1.60795900
-37.94945000 1.57017700 -1.60795900
-37.92897000 2.91604400 -1.60795900
-37.90849000 3.36466600 -1.57261900
-37.88801000 2.46742200 -1.60795900
-37.86753000 3.36466600 -1.57261900
-37.84705000 2.46742200 -1.59025800
-37.82657000 2.91604400 -1.60795900
-37.80609000 2.46742200 -1.62559900
-37.78561000 2.46742200 -1.60795900
-37.76513000 2.01879900 -1.60795900
-37.74465000 2.91604400 -1.59025800
-37.72417000 2.91604400 -1.57261900
-37.70369000 2.91604400 -1.59025800
-37.68321000 3.36466600 -1.59025800
-37.66273000 2.46742200 -1.59025800
-37.64225000 2.46742200 -1.60795900
-37.62177000 2.01879900 -1.60795900
-37.60129000 2.46742200 -1.59025800
-37.58081000 2.91604400 -1.55497900
-37.56033000 2.46742200 -1.59025800
-37.53985000 3.36466600 -1.57261900
-37.51937000 2.46742200 -1.60795900
-37.49889000 2.91604400 -1.60795900
-37.47840000 2.91604400 -1.59025800
-37.45793000 2.46742200 -1.59025800
-37.43745000 1.57017700 -1.60795900
-37.41697000 2.91604400 -1.59025800
-37.39649000 2.91604400 -1.57261900
-37.37601000 2.91604400 -1.59025800
-37.35553000 2.91604400 -1.59025800
-37.33505000 2.91604400 -1.59025800
-37.31457000 2.46742200 -1.60795900
-37.29409000 1.57017700 -1.62559900
-37.27361000 2.46742200 -1.60795900
-37.25313000 2.01879900 -1.59025800
-37.23265000 2.91604400 -1.59025800
-37.21217000 3.36466600 -1.55497900
-37.19169000 2.46742200 -1.59025800
-37.17121000 2.91604400 -1.59025800
-37.15073000 2.91604400 -1.59025800
-37.13025000 2.46742200 -1.60795900
-37.10977000 1.57017700 -1.60795900
-37.08929000 2.46742200 -1.59025800
-37.06881000 2.91604400 -1.55497900
-37.04833000 2.46742200 -1.59025800
-37.02785000 3.36466600 -1.57261900
-37.00737000 2.46742200 -1.59025800
-36.98689000 2.91604400 -1.59025800
-36.96640000 2.46742200 -1.59025800
-36.94593000 2.46742200 1.58720700
-36.92545000 2.01879900 1.56956700
-36.90497000 2.91604400 1.58720700
-36.88449000 2.91604400 1.62254700
-36.86401000 2.91604400 1.58720700
-36.84353000 19.06949000 1.62254700
-36.82305000 17.27500000 1.58720700
-36.80257000 16.37776000 1.58720700
-36.78209000 14.58327000 1.56956700
-36.76161000 14.13465000 1.58720700
-36.74113000 12.78726000 1.58720700
-36.72065000 12.33863000 1.60484600
-36.70017000 12.33863000 1.62254700
-36.67969000 10.54414000 1.60484600
-36.65921000 10.54414000 1.62254700
-36.63873000 9.64690000 1.58720700
-36.61825000 8.74965700 1.58720700
-36.59777000 7.85088700 1.58720700
-36.57729000 8.30103400 1.60484600
-36.55680000 8.30103400 1.64018700
-36.53633000 7.40226500 1.60484600
-36.51585000 7.85088700 1.62254700
-36.49537000 6.50502000 1.60484600
-36.47489000 6.05639800 1.58720700
-36.45441000 5.60777600 1.58720700
-36.43393000 5.15915400 1.58720700
-36.41344000 4.71053200 1.58720700
-36.39297000 5.15915400 1.60484600
-36.37249000 5.15915400 1.62254700
-36.35201000 4.71053200 1.58720700
-36.33153000 5.15915400 1.62254700
-36.31105000 4.26191000 1.60484600
-36.29057000 4.26191000 1.58720700
-36.27009000 3.36466600 1.58720700
-36.24961000 3.81328800 1.60484600
-36.22913000 4.26191000 1.62254700
-36.20865000 3.36466600 1.58720700
-36.18817000 4.71053200 1.62254700
-36.16769000 3.36466600 1.60484600
-36.14721000 3.81328800 1.58720700
-36.12673000 3.36466600 1.60484600
-36.10625000 3.36466600 1.58720700
-36.08577000 2.46742200 1.58720700
-36.06529000 3.36466600 1.60484600
-36.04481000 3.36466600 1.62254700
-36.02433000 2.91604400 1.58720700
-36.00385000 3.36466600 1.62254700
-35.98337000 3.36466600 1.58720700
-35.96289000 2.91604400 1.58720700
-35.94241000 1.57017700 1.56956700
-35.92193000 2.91604400 1.58720700
-35.90145000 2.46742200 1.58720700
-35.88097000 2.91604400 1.58720700
-35.86049000 3.36466600 1.62254700
-35.84001000 2.91604400 1.58720700
-35.81953000 3.36466600 1.60484600
-35.79905000 2.91604400 1.58720700
-35.77857000 2.46742200 1.58720700
-35.75809000 1.57017700 1.56956700
-35.73761000 2.46742200 1.58720700
-35.71712000 2.91604400 -1.55497900
-35.69665000 2.46742200 -1.59025800
-35.67617000 2.91604400 -1.59025800
-35.65569000 2.46742200 -1.59025800
-35.63521000 2.91604400 -1.60795900
-35.61473000 2.46742200 -1.59025800
-35.59425000 2.46742200 -1.60795900
-35.57377000 1.57017700 -1.60795900
-35.55329000 2.46742200 -1.59025800
-35.53281000 2.91604400 -1.59025800
-35.51233000 2.46742200 -1.60795900
-35.49185000 2.91604400 -1.59025800
-35.47137000 2.91604400 -1.60795900
-35.45089000 2.46742200 -1.60795900
-35.43041000 1.57017700 -1.62559900
-35.40993000 2.46742200 -1.60795900
-35.38945000 2.01879900 -1.59025800
-35.36897000 2.46742200 -1.60795900
-35.34849000 3.36466600 -1.57261900
-35.32801000 2.46742200 -1.60795900
-35.30753000 2.91604400 -1.59025800
-35.28705000 2.46742200 -1.59025800
-35.26657000 2.46742200 -1.60795900
-35.24609000 1.57017700 -1.60795900
-35.22561000 2.46742200 -1.59025800
-35.20512000 2.91604400 -1.55497900
-35.18465000 2.46742200 -1.59025800
-35.16417000 2.91604400 -1.59025800
-35.14369000 2.46742200 -1.59025800
-35.12321000 2.46742200 -1.60795900
-35.10273000 1.57017700 -1.60795900
-35.08225000 2.46742200 -1.60795900
-35.06177000 1.57017700 -1.60795900
-35.04129000 2.46742200 -1.59025800
-35.02081000 2.91604400 -1.57261900
-35.00033000 2.46742200 -1.59025800
-34.97985000 2.91604400 -1.59025800
-34.95937000 2.46742200 -1.59025800
-34.93889000 2.46742200 -1.60795900
-34.91841000 1.57017700 -1.60795900
-34.89793000 2.46742200 -1.59025800
-34.87745000 2.46742200 -1.55497900
-34.85697000 2.46742200 -1.59025800
-34.83649000 3.36466600 -1.55497900
-34.81601000 2.91604400 -1.59025800
-34.79552000 2.91604400 -1.59025800
-34.77505000 2.46742200 -1.59025800
-34.75457000 2.46742200 -1.59025800
-34.73409000 1.57017700 -1.60795900
-34.71361000 2.46742200 -1.59025800
-34.69313000 2.91604400 -1.55497900
-34.67265000 2.46742200 -1.59025800
-34.65216000 2.91604400 -1.57261900
-34.63169000 2.46742200 -1.59025800
-34.61121000 2.46742200 -1.60795900
-34.59073000 1.57017700 -1.62559900
-34.57025000 2.46742200 -1.59025800
-34.54977000 1.57017700 -1.59025800
-34.52929000 2.46742200 -1.59025800
-34.50881000 2.91604400 -1.55497900
-34.48833000 2.91604400 1.56956700
-34.46785000 3.36466600 1.58720700
-34.44737000 2.46742200 1.60484600
-34.42689000 2.46742200 1.58720700
-34.40641000 1.57017700 1.56956700
-34.38593000 21.76275000 1.58720700
-34.36545000 20.86551000 1.62254700
-34.34497000 19.06949000 1.58720700
-34.32449000 18.62087000 1.62254700
-34.30401000 16.82638000 1.60484600
-34.28353000 15.92914000 1.58720700
-34.26305000 14.13465000 1.58720700
-34.24257000 13.23588000 1.58720700
-34.22209000 11.89001000 1.58720700
-34.20161000 11.44139000 1.60484600
-34.18113000 11.44139000 1.62254700
-34.16065000 10.54414000 1.62254700
-34.14017000 10.09552000 1.62254700
-34.11969000 9.19827800 1.58720700
-34.09921000 8.74965700 1.58720700
-34.07873000 6.95364200 1.56956700
-34.05825000 7.85088700 1.58720700
-34.03777000 6.50502000 1.60484600
-34.01729000 6.95364200 1.62254700
-33.99681000 6.95364200 1.62254700
-33.97633000 6.50502000 1.58720700
-33.95584000 6.50502000 1.62254700
-33.93537000 5.15915400 1.60484600
-33.91489000 5.15915400 1.58720700
-33.89441000 4.26191000 1.58720700
-33.87393000 4.71053200 1.58720700
-33.85345000 5.15915400 1.64018700
-33.83297000 4.71053200 1.60484600
-33.81249000 5.15915400 1.62254700
-33.79201000 4.26191000 1.60484600
-33.77153000 4.26191000 1.58720700
-33.75105000 4.26191000 1.58720700
-33.73057000 3.36466600 1.58720700
-33.71009000 2.91604400 1.58720700
-33.68961000 3.36466600 1.58720700
-33.66913000 3.81328800 1.62254700
-33.64865000 3.36466600 1.60484600
-33.62817000 3.81328800 1.62254700
-33.60769000 3.36466600 1.58720700
-33.58721000 3.36466600 1.58720700
-33.56673000 2.46742200 1.58720700
-33.54625000 2.91604400 1.58720700
-33.52577000 3.36466600 1.62254700
-33.50529000 2.91604400 1.58720700
-33.48481000 3.36466600 1.62254700
-33.46433000 2.91604400 1.58720700
-33.44385000 3.36466600 1.58720700
-33.42337000 2.91604400 1.58720700
-33.40289000 2.91604400 1.58720700
-33.38241000 2.01879900 1.58720700
-33.36193000 2.91604400 1.58720700
-33.34145000 3.36466600 1.62254700
-33.32097000 2.91604400 1.58720700
-33.30049000 3.36466600 1.58720700
-33.28001000 2.91604400 1.58720700
-33.25953000 2.46742200 -1.57261900
-33.23905000 1.57017700 -1.62559900
-33.21857000 2.46742200 -1.60795900
-33.19809000 2.01879900 -1.60795900
-33.17761000 2.46742200 -1.60795900
-33.15713000 3.36466600 -1.57261900
-33.13665000 2.46742200 -1.60795900
-33.11617000 3.36466600 -1.59025800
-33.09569000 2.46742200 -1.60795900
-33.07521000 2.46742200 -1.60795900
-33.05473000 1.57017700 -1.62559900
-33.03424000 2.46742200 -1.60795900
-33.01377000 2.91604400 -1.55497900
-32.99329000 2.46742200 -1.60795900
-32.97281000 3.36466600 -1.59025800
-32.95233000 2.46742200 -1.60795900
-32.93185000 2.91604400 -1.60795900
-32.91137000 2.91604400 -1.59025800
-32.89088000 2.46742200 -1.60795900
-32.87041000 1.57017700 -1.60795900
-32.84993000 2.46742200 -1.59025800
-32.82945000 2.91604400 -1.59025800
-32.80897000 2.46742200 -1.59025800
-32.78849000 3.36466600 -1.59025800
-32.76801000 2.91604400 -1.60795900
-32.74753000 2.46742200 -1.60795900
-32.72705000 1.57017700 -1.62559900
-32.70657000 2.46742200 -1.60795900
-32.68609000 2.01879900 -1.59025800
-32.66561000 2.46742200 -1.59025800
-32.64513000 3.36466600 -1.57261900
-32.62465000 2.91604400 -1.59025800
-32.60417000 2.91604400 -1.59025800
-32.58369000 2.46742200 -1.59025800
-32.56321000 2.46742200 -1.59025800
-32.54273000 1.57017700 -1.60795900
-32.52225000 2.91604400 -1.59025800
-32.50177000 2.91604400 -1.55497900
-32.48129000 2.46742200 -1.59025800
-32.46081000 3.36466600 -1.57261900
-32.44033000 2.46742200 -1.59025800
-32.41985000 2.46742200 -1.60795900
-32.39937000 1.57017700 -1.60795900
-32.37889000 2.46742200 -1.59025800
-32.35841000 1.57017700 -1.60795900
-32.33792000 2.46742200 -1.59025800
-32.31745000 2.91604400 -1.57261900
-32.29697000 2.46742200 -1.59025800
-32.27649000 3.36466600 -1.57261900
-32.25601000 2.91604400 -1.59025800
-32.23553000 2.46742200 -1.60795900
-32.21505000 2.01879900 -1.60795900
-32.19456000 2.46742200 -1.59025800
-32.17409000 2.46742200 -1.55497900
-32.15361000 2.91604400 -1.59025800
-32.13313000 3.36466600 -1.57261900
-32.11265000 2.91604400 -1.59025800
-32.09217000 2.91604400 -1.59025800
-32.07169000 2.46742200 -1.59025800
-32.05121000 2.46742200 -1.59025800
-32.03073000 1.57017700 -1.60795900
-32.01025000 2.91604400 1.58720700
-31.98977000 2.91604400 1.62254700
-31.96929000 2.91604400 1.58720700
-31.94881000 3.36466600 1.62254700
-31.92833000 15.92914000 1.60484600
-31.90785000 15.48051000 1.58720700
-31.88737000 13.68450000 1.56956700
-31.86689000 13.68450000 1.58720700
-31.84641000 11.89001000 1.58720700
-31.82593000 11.89001000 1.60484600
-31.80545000 11.89001000 1.62254700
-31.78497000 10.54414000 1.58720700
-31.76449000 10.54414000 1.62254700
-31.74401000 9.19827800 1.58720700
-31.72353000 8.74965700 1.58720700
-31.70305000 7.40226500 1.58720700
-31.68257000 7.40226500 1.58720700
-31.66209000 7.85088700 1.64018700
-31.64161000 6.95364200 1.60484600
-31.62113000 6.95364200 1.62254700
-31.60065000 6.50502000 1.60484600
-31.58017000 6.50502000 1.58720700
-31.55969000 5.60777600 1.62254700
-31.53921000 5.15915400 1.58720700
-31.51873000 4.71053200 1.58720700
-31.49825000 5.15915400 1.60484600
-31.47777000 5.15915400 1.62254700
-31.45729000 4.71053200 1.58720700
-31.43681000 5.15915400 1.62254700
-31.41633000 4.26191000 1.62254700
-31.39585000 4.26191000 1.58720700
-31.37537000 3.36466600 1.56956700
-31.35489000 3.81328800 1.58720700
-31.33441000 3.36466600 1.60484600
-31.31393000 3.81328800 1.60484600
-31.29345000 4.71053200 1.62254700
-31.27297000 3.36466600 1.60484600
-31.25249000 3.81328800 1.60484600
-31.23201000 3.36466600 1.60484600
-31.21153000 3.36466600 1.58720700
-31.19105000 2.46742200 1.58720700
-31.17057000 3.36466600 1.58720700
-31.15009000 3.36466600 1.64018700
-31.12961000 2.91604400 1.58720700
-31.10913000 3.81328800 1.62254700
-31.08865000 3.36466600 1.58720700
-31.06817000 3.36466600 1.58720700
-31.04769000 3.36466600 1.58720700
-31.02721000 2.91604400 1.58720700
-31.00673000 2.46742200 1.58720700
-30.98625000 2.91604400 1.58720700
-30.96577000 3.36466600 1.62254700
-30.94529000 2.91604400 1.58720700
-30.92481000 3.36466600 1.60484600
-30.90433000 2.91604400 1.58720700
-30.88385000 2.46742200 1.58720700
-30.86337000 2.01879900 1.58720700
-30.84289000 2.91604400 1.58720700
-30.82241000 2.91604400 1.62254700
-30.80193000 2.91604400 1.58720700
-30.78145000 3.36466600 -1.57261900
-30.76097000 2.91604400 -1.60795900
-30.74049000 2.91604400 -1.60795900
-30.72001000 2.91604400 -1.60795900
-30.69953000 2.46742200 -1.60795900
-30.67905000 2.01879900 -1.60795900
-30.65857000 2.46742200 -1.60795900
-30.63809000 2.91604400 -1.57261900
-30.61761000 2.91604400 -1.60795900
-30.59713000 3.36466600 -1.59025800
-30.57665000 2.91604400 -1.60795900
-30.55617000 2.46742200 -1.60795900
-30.53569000 2.01879900 -1.62559900
-30.51521000 2.46742200 -1.60795900
-30.49473000 1.57017700 -1.60795900
-30.47425000 2.91604400 -1.59025800
-30.45377000 3.36466600 -1.57261900
-30.43329000 2.46742200 -1.60795900
-30.41281000 3.36466600 -1.59025800
-30.39233000 2.91604400 -1.59025800
-30.37185000 2.46742200 -1.60795900
-30.35137000 2.01879900 -1.60795900
-30.33089000 2.91604400 -1.59025800
-30.31041000 2.91604400 -1.55497900
-30.28993000 2.91604400 -1.60795900
-30.26945000 3.36466600 -1.57261900
-30.24897000 2.91604400 -1.60795900
-30.22849000 2.91604400 -1.60795900
-30.20801000 2.91604400 -1.59025800
-30.18753000 2.46742200 -1.60795900
-30.16705000 1.57017700 -1.60795900
-30.14657000 2.46742200 -1.59025800
-30.12609000 2.91604400 -1.57261900
-30.10561000 2.46742200 -1.60795900
-30.08513000 3.36466600 -1.59025800
-30.06465000 2.91604400 -1.60795900
-30.04417000 2.46742200 -1.60795900
-30.02369000 1.57017700 -1.62559900
-30.00321000 2.91604400 -1.60795900
-29.98273000 2.01879900 -1.59025800
-29.96225000 2.46742200 -1.59025800
-29.94177000 3.36466600 -1.57261900
-29.92129000 2.91604400 -1.59025800
-29.90081000 3.36466600 -1.59025800
-29.88033000 2.91604400 -1.59025800
-29.85985000 2.91604400 -1.60795900
-29.83937000 1.57017700 -1.60795900
-29.81889000 2.91604400 -1.59025800
-29.79841000 3.36466600 -1.55497900
-29.77793000 2.91604400 -1.59025800
-29.75745000 3.36466600 -1.55497900
-29.73697000 2.46742200 -1.59025800
-29.71649000 2.91604400 -1.60795900
-29.69601000 1.57017700 -1.59025800
-29.67553000 2.91604400 -1.59025800
-29.65505000 2.01879900 -1.59025800
-29.63457000 2.91604400 -1.59025800
-29.61409000 3.36466600 -1.55497900
-29.59361000 2.91604400 -1.59025800
-29.57313000 3.36466600 -1.57261900
-29.55265000 2.91604400 1.58720700
-29.53217000 2.91604400 1.56956700
-29.51169000 2.01879900 1.58720700
-29.49121000 2.91604400 1.58720700
-29.47073000 4.71053200 1.60484600
-29.45025000 5.60777600 1.60484600
-29.42977000 6.05639800 1.62254700
-29.40929000 5.15915400 1.60484600
-29.38881000 5.15915400 1.60484600
-29.36833000 4.71053200 1.60484600
-29.34785000 4.26191000 1.58720700
-29.32737000 3.36466600 1.58720700
-29.30689000 4.26191000 1.60484600
-29.28641000 4.71053200 1.64018700
-29.26593000 3.81328800 1.58720700
-29.24545000 4.26191000 1.62254700
-29.22497000 3.36466600 1.58720700
-29.20449000 3.36466600 1.58720700
-29.18401000 2.91604400 1.56956700
-29.16353000 3.36466600 1.60484600
-29.14305000 2.91604400 1.58720700
-29.12257000 3.36466600 1.60484600
-29.10209000 3.81328800 1.62254700
-29.08161000 3.36466600 1.62254700
-29.06113000 3.81328800 1.62254700
-29.04065000 3.36466600 1.62254700
-29.02017000 2.91604400 1.58720700
-28.99969000 2.46742200 1.58720700
-28.97921000 2.91604400 1.58720700
-28.95873000 3.36466600 1.64018700
-28.93825000 2.91604400 1.58720700
-28.91777000 3.81328800 1.62254700
-28.89729000 2.91604400 1.60484600
-28.87681000 3.36466600 1.58720700
-28.85633000 2.91604400 1.58720700
-28.83585000 2.91604400 1.58720700
-28.81537000 2.46742200 1.58720700
-28.79489000 2.91604400 1.62254700
-28.77441000 3.36466600 1.62254700
-28.75393000 2.91604400 1.60484600
-28.73345000 3.36466600 1.62254700
-28.71297000 2.46742200 1.58720700
-28.69249000 2.91604400 1.58720700
-28.67201000 1.57017700 1.55192700
-28.65153000 2.91604400 1.60484600
-28.63105000 2.46742200 1.58720700
-28.61057000 2.91604400 1.60484600
-28.59009000 3.36466600 1.62254700
-28.56961000 2.91604400 1.58720700
-28.54913000 3.36466600 1.58720700
-28.52865000 2.91604400 1.58720700
-28.50817000 2.91604400 1.58720700
-28.48769000 1.57017700 1.56956700
-28.46721000 2.91604400 1.58720700
-28.44673000 3.36466600 1.62254700
-28.42625000 2.91604400 1.58720700
-28.40577000 3.36466600 1.62254700
-28.38529000 2.91604400 1.58720700
-28.36481000 2.91604400 1.58720700
-28.34433000 3.81328800 1.58720700
-28.32385000 2.46742200 -1.59025800
-28.30337000 2.01879900 -1.60795900
-28.28289000 2.91604400 -1.59025800
-28.26241000 2.91604400 -1.57261900
-28.24193000 2.91604400 -1.59025800
-28.22145000 3.36466600 -1.59025800
-28.20097000 2.46742200 -1.60795900
-28.18049000 2.46742200 -1.60795900
-28.16001000 1.57017700 -1.62559900
-28.13953000 2.91604400 -1.60795900
-28.11905000 2.46742200 -1.59025800
-28.09857000 2.91604400 -1.60795900
-28.07809000 3.36466600 -1.57261900
-28.05761000 2.91604400 -1.60795900
-28.03713000 3.36466600 -1.60795900
-28.01665000 2.91604400 -1.59025800
-27.99617000 2.91604400 -1.60795900
-27.97569000 2.01879900 -1.62559900
-27.95521000 2.91604400 -1.59025800
-27.93473000 3.36466600 -1.57261900
-27.91425000 2.91604400 -1.59025800
-27.89377000 3.36466600 -1.59025800
-27.87329000 2.91604400 -1.59025800
-27.85281000 2.91604400 -1.60795900
-27.83233000 1.57017700 -1.62559900
-27.81185000 2.91604400 -1.59025800
-27.79137000 2.01879900 -1.60795900
-27.77089000 2.91604400 -1.59025800
-27.75041000 3.36466600 -1.57261900
-27.72993000 2.91604400 -1.59025800
-27.70945000 3.36466600 -1.59025800
-27.68897000 2.91604400 -1.59025800
-27.66849000 2.91604400 -1.60795900
-27.64801000 2.01879900 -1.60795900
-27.62753000 2.91604400 -1.59025800
-27.60705000 2.91604400 -1.55497900
-27.58657000 2.91604400 -1.59025800
-27.56609000 3.36466600 -1.57261900
-27.54561000 2.91604400 -1.59025800
-27.52513000 3.36466600 -1.59025800
-27.50465000 2.91604400 -1.59025800
-27.48417000 2.46742200 -1.60795900
-27.46369000 2.01879900 -1.60795900
-27.44321000 2.91604400 -1.59025800
-27.42273000 3.36466600 -1.55497900
-27.40225000 2.91604400 -1.59025800
-27.38177000 3.36466600 -1.57261900
-27.36129000 2.91604400 -1.59025800
-27.34081000 2.91604400 -1.60795900
-27.32033000 1.57017700 -1.62559900
-27.29985000 2.91604400 -1.59025800
-27.27937000 2.46742200 -1.59025800
-27.25889000 2.91604400 -1.59025800
-27.23841000 3.36466600 -1.57261900
-27.21793000 2.91604400 -1.57261900
-27.19745000 3.36466600 -1.59025800
-27.17697000 2.91604400 -1.59025800
-27.15649000 2.91604400 -1.59025800
-27.13601000 1.57017700 -1.60795900
-27.11553000 2.91604400 -1.59025800
-27.09505000 3.36466600 1.56956700
-27.07457000 2.91604400 1.58720700
-27.05409000 3.36466600 1.58720700
-27.03361000 2.91604400 1.58720700
-27.01313000 3.36466600 1.58720700
-26.99265000 10.99277000 1.58720700
-26.97217000 10.54414000 1.58720700
-26.95169000 9.19827800 1.58720700
-26.93121000 9.64690000 1.62254700
-26.91073000 9.19827800 1.62254700
-26.89025000 8.30103400 1.58720700
-26.86977000 8.74965700 1.62254700
-26.84929000 7.40226500 1.62254700
-26.82881000 7.40226500 1.58720700
-26.80833000 6.05639800 1.56956700
-26.78785000 6.50502000 1.60484600
-26.76737000 5.60777600 1.58720700
-26.74689000 6.05639800 1.62254700
-26.72641000 6.50502000 1.62254700
-26.70593000 5.15915400 1.60484600
-26.68545000 5.60777600 1.62254700
-26.66497000 5.15915400 1.62254700
-26.64449000 4.71053200 1.58720700
-26.62401000 3.81328800 1.58720700
-26.60353000 4.71053200 1.58720700
-26.58305000 5.15915400 1.64018700
-26.56257000 4.26191000 1.58720700
-26.54209000 4.71053200 1.62254700
-26.52161000 3.81328800 1.62254700
-26.50113000 3.81328800 1.58720700
-26.48065000 3.36466600 1.58720700
-26.46017000 3.36466600 1.58720700
-26.43969000 2.91604400 1.58720700
-26.41921000 3.36466600 1.62254700
-26.39873000 3.81328800 1.62254700
-26.37825000 3.36466600 1.62254700
-26.35777000 3.81328800 1.62254700
-26.33729000 3.36466600 1.58720700
-26.31681000 3.36466600 1.58720700
-26.29633000 2.91604400 1.58720700
-26.27585000 2.91604400 1.58720700
-26.25537000 3.36466600 1.62254700
-26.23489000 2.91604400 1.58720700
-26.21441000 3.81328800 1.62254700
-26.19393000 2.91604400 1.60484600
-26.17345000 3.36466600 1.58720700
-26.15297000 2.91604400 1.58720700
-26.13249000 2.91604400 1.58720700
-26.11201000 2.46742200 1.58720700
-26.09153000 2.91604400 1.58720700
-26.07105000 3.36466600 1.62254700
-26.05057000 2.91604400 1.58720700
-26.03009000 3.36466600 1.62254700
-26.00961000 2.91604400 1.58720700
-25.98913000 2.91604400 1.58720700
-25.96865000 1.57017700 1.56956700
-25.94817000 2.91604400 1.58720700
-25.92769000 2.46742200 1.58720700
-25.90721000 2.91604400 1.58720700
-25.88673000 3.36466600 1.62254700
-25.86625000 3.36466600 1.58720700
-25.84577000 3.36466600 -1.59025800
-25.82529000 2.91604400 -1.60795900
-25.80481000 2.91604400 -1.60795900
-25.78433000 2.01879900 -1.62559900
-25.76385000 2.91604400 -1.60795900
-25.74337000 3.36466600 -1.55497900
-25.72289000 2.91604400 -1.60795900
-25.70241000 3.36466600 -1.57261900
-25.68193000 2.91604400 -1.59025800
-25.66145000 2.91604400 -1.60795900
-25.64097000 2.91604400 -1.60795900
-25.62049000 2.91604400 -1.60795900
-25.60001000 2.01879900 -1.60795900
-25.57953000 2.91604400 -1.59025800
-25.55905000 3.36466600 -1.59025800
-25.53857000 2.91604400 -1.60795900
-25.51809000 3.36466600 -1.59025800
-25.49761000 2.91604400 -1.59025800
-25.47713000 2.91604400 -1.60795900
-25.45665000 1.57017700 -1.62559900
-25.43617000 2.91604400 -1.60795900
-25.41569000 2.46742200 -1.60795900
-25.39521000 2.91604400 -1.59025800
-25.37473000 3.36466600 -1.57261900
-25.35425000 2.91604400 -1.60795900
-25.33377000 3.36466600 -1.59025800
-25.31329000 2.91604400 -1.59025800
-25.29281000 2.91604400 -1.60795900
-25.27233000 2.01879900 -1.62559900
-25.25185000 2.91604400 -1.59025800
-25.23137000 3.36466600 -1.55497900
-25.21089000 2.91604400 -1.59025800
-25.19041000 3.36466600 -1.57261900
-25.16993000 2.91604400 -1.59025800
-25.14945000 2.91604400 -1.60795900
-25.12897000 3.36466600 -1.60795900
-25.10849000 2.91604400 -1.60795900
-25.08801000 2.01879900 -1.60795900
-25.06753000 2.91604400 -1.59025800
-25.04705000 3.36466600 -1.57261900
-25.02657000 2.91604400 -1.59025800
-25.00609000 3.36466600 -1.57261900
-24.98561000 2.91604400 -1.59025800
-24.96513000 2.91604400 -1.60795900
-24.94465000 2.46742200 -1.60795900
-24.92417000 2.91604400 -1.59025800
-24.90369000 2.91604400 -1.57261900
-24.88321000 2.91604400 -1.59025800
-24.86273000 3.36466600 -1.57261900
-24.84225000 2.91604400 -1.59025800
-24.82177000 3.36466600 -1.59025800
-24.80129000 2.91604400 -1.57261900
-24.78081000 2.91604400 -1.60795900
-24.76033000 2.01879900 -1.60795900
-24.73985000 2.91604400 -1.59025800
-24.71937000 3.36466600 -1.55497900
-24.69889000 2.91604400 -1.59025800
-24.67841000 3.36466600 -1.57261900
-24.65793000 2.91604400 -1.59025800
-24.63745000 2.91604400 -1.60795900
-24.61697000 2.46742200 1.55192700
-24.59649000 2.91604400 1.58720700
-24.57601000 2.46742200 1.58720700
-24.55553000 3.36466600 1.58720700
-24.53505000 20.86551000 1.62254700
-24.51457000 19.51811000 1.58720700
-24.49409000 19.06949000 1.62254700
-24.47361000 17.27500000 1.58720700
-24.45313000 15.92914000 1.58720700
-24.43265000 14.13465000 1.58720700
-24.41217000 14.13465000 1.58720700
-24.39169000 12.78726000 1.62254700
-24.37121000 12.33863000 1.58720700
-24.35073000 12.33863000 1.62254700
-24.33025000 10.99277000 1.60484600
-24.30977000 10.54414000 1.58720700
-24.28929000 9.64690000 1.62254700
-24.26881000 8.74965700 1.58720700
-24.24833000 7.85088700 1.58720700
-24.22785000 8.30103400 1.62254700
-24.20737000 8.30103400 1.62254700
-24.18689000 6.95364200 1.60484600
-24.16641000 7.85088700 1.62254700
-24.14593000 6.95364200 1.58720700
-24.12545000 6.50502000 1.58720700
-24.10497000 5.15915400 1.56956700
-24.08449000 5.60777600 1.58720700
-24.06401000 5.15915400 1.60484600
-24.04353000 5.15915400 1.62254700
-24.02305000 5.60777600 1.62254700
-24.00257000 5.15915400 1.60484600
-23.98209000 5.15915400 1.60484600
-23.96161000 4.71053200 1.58720700
-23.94113000 4.26191000 1.58720700
-23.92065000 3.36466600 1.58720700
-23.90017000 4.26191000 1.58720700
-23.87969000 4.71053200 1.62254700
-23.85921000 3.81328800 1.58720700
-23.83873000 4.71053200 1.62254700
-23.81825000 3.81328800 1.60484600
-23.79777000 3.81328800 1.58720700
-23.77729000 3.36466600 1.58720700
-23.75681000 3.36466600 1.58720700
-23.73633000 2.91604400 1.58720700
-23.71585000 3.36466600 1.58720700
-23.69537000 3.36466600 1.62254700
-23.67489000 3.36466600 1.58720700
-23.65441000 3.81328800 1.62254700
-23.63393000 3.36466600 1.58720700
-23.61345000 3.36466600 1.58720700
-23.59297000 2.46742200 1.56956700
-23.57249000 2.91604400 1.58720700
-23.55201000 2.91604400 1.60484600
-23.53153000 3.36466600 1.58720700
-23.51105000 3.81328800 1.62254700
-23.49057000 2.91604400 1.58720700
-23.47009000 3.36466600 1.58720700
-23.44961000 2.91604400 1.58720700
-23.42913000 2.91604400 1.58720700
-23.40865000 2.46742200 1.58720700
-23.38817000 2.91604400 -1.60795900
-23.36769000 3.36466600 -1.55497900
-23.34721000 2.91604400 -1.59025800
-23.32673000 3.36466600 -1.59025800
-23.30625000 2.91604400 -1.60795900
-23.28577000 2.91604400 -1.60795900
-23.26529000 2.01879900 -1.62559900
-23.24481000 2.91604400 -1.60795900
-23.22433000 2.46742200 -1.60795900
-23.20385000 2.91604400 -1.60795900
-23.18337000 3.36466600 -1.59025800
-23.16289000 2.91604400 -1.60795900
-23.14241000 3.36466600 -1.59025800
-23.12193000 2.91604400 -1.60795900
-23.10145000 2.91604400 -1.60795900
-23.08097000 2.46742200 -1.60795900
-23.06049000 2.91604400 -1.60795900
-23.04001000 2.91604400 -1.57261900
-23.01953000 2.91604400 -1.59025800
-22.99905000 3.36466600 -1.57261900
-22.97857000 2.91604400 -1.59025800
-22.95809000 2.91604400 -1.60795900
-22.93761000 2.46742200 -1.59025800
-22.91713000 2.46742200 -1.60795900
-22.89665000 2.01879900 -1.60795900
-22.87617000 2.91604400 -1.59025800
-22.85569000 3.36466600 -1.57261900
-22.83521000 2.91604400 -1.59025800
-22.81473000 3.36466600 -1.57261900
-22.79425000 2.91604400 -1.59025800
-22.77377000 2.91604400 -1.60795900
-22.75329000 1.57017700 -1.64323900
-22.73281000 2.46742200 -1.60795900
-22.71233000 2.01879900 -1.59025800
-22.69185000 2.91604400 -1.60795900
-22.67137000 3.36466600 -1.57261900
-22.65089000 2.91604400 -1.59025800
-22.63041000 3.36466600 -1.59025800
-22.60993000 2.91604400 -1.59025800
-22.58945000 2.91604400 -1.60795900
-22.56897000 2.01879900 -1.60795900
-22.54849000 2.91604400 -1.59025800
-22.52801000 3.36466600 -1.55497900
-22.50753000 2.91604400 -1.59025800
-22.48705000 3.36466600 -1.57261900
-22.46657000 2.91604400 -1.59025800
-22.44609000 2.91604400 -1.60795900
-22.42561000 2.91604400 -1.59025800
-22.40513000 2.91604400 -1.59025800
-22.38465000 2.01879900 -1.60795900
-22.36417000 2.91604400 -1.59025800
-22.34369000 3.36466600 -1.57261900
-22.32321000 2.91604400 -1.59025800
-22.30273000 3.36466600 -1.57261900
-22.28225000 2.91604400 -1.59025800
-22.26177000 2.91604400 -1.60795900
-22.24129000 1.57017700 -1.60795900
-22.22081000 2.91604400 -1.59025800
-22.20033000 2.46742200 -1.57261900
-22.17985000 2.91604400 -1.59025800
-22.15937000 3.36466600 1.58720700
-22.13889000 2.91604400 1.58720700
-22.11841000 3.36466600 1.58720700
-22.09793000 2.91604400 1.58720700
-22.07745000 2.91604400 1.58720700
-22.05697000 14.13465000 1.56956700
-22.03649000 14.13465000 1.58720700
-22.01601000 13.68450000 1.64018700
-21.99553000 12.33863000 1.58720700
-21.97505000 12.33863000 1.62254700
-21.95457000 10.99277000 1.58720700
-21.93409000 10.54414000 1.58720700
-21.91361000 8.74965700 1.58720700
-21.89313000 8.74965700 1.58720700
-21.87265000 7.85088700 1.58720700
-21.85217000 8.30103400 1.60484600
-21.83169000 7.85088700 1.62254700
-21.81121000 7.40226500 1.60484600
-21.79073000 7.40226500 1.62254700
-21.77025000 6.50502000 1.60484600
-21.74977000 6.50502000 1.58720700
-21.72929000 5.15915400 1.58720700
-21.70881000 5.15915400 1.60484600
-21.68833000 5.60777600 1.62254700
-21.66785000 5.15915400 1.58720700
-21.64737000 5.60777600 1.62254700
-21.62689000 4.71053200 1.60484600
-21.60641000 4.71053200 1.60484600
-21.58593000 4.26191000 1.60484600
-21.56545000 4.26191000 1.58720700
-21.54497000 3.36466600 1.58720700
-21.52449000 4.26191000 1.62254700
-21.50401000 4.26191000 1.62254700
-21.48353000 3.81328800 1.58720700
-21.46305000 4.26191000 1.62254700
-21.44257000 3.36466600 1.58720700
-21.42209000 3.36466600 1.58720700
-21.40161000 2.46742200 1.56956700
-21.38113000 3.36466600 1.58720700
-21.36065000 2.91604400 1.58720700
-21.34017000 3.36466600 1.58720700
-21.31969000 3.36466600 1.62254700
-21.29921000 3.36466600 1.60484600
-21.27873000 3.36466600 1.62254700
-21.25825000 3.36466600 1.58720700
-21.23777000 2.91604400 1.58720700
-21.21729000 2.46742200 1.58720700
-21.19681000 2.91604400 1.58720700
-21.17633000 3.36466600 1.64018700
-21.15585000 3.36466600 1.58720700
-21.13537000 3.36466600 1.62254700
-21.11489000 2.91604400 1.58720700
-21.09441000 3.36466600 1.58720700
-21.07393000 2.91604400 1.58720700
-21.05345000 2.46742200 1.58720700
-21.03297000 2.01879900 1.58720700
-21.01249000 2.91604400 1.58720700
-20.99201000 3.36466600 1.62254700
-20.97153000 2.91604400 1.58720700
-20.95105000 3.36466600 1.62254700
-20.93057000 2.91604400 -1.53733900
-20.91009000 2.46742200 -1.60795900
-20.88961000 1.57017700 -1.62559900
-20.86913000 2.91604400 -1.60795900
-20.84865000 2.46742200 -1.59025800
-20.82817000 2.91604400 -1.60795900
-20.80769000 3.36466600 -1.59025800
-20.78721000 2.91604400 -1.60795900
-20.76673000 2.91604400 -1.60795900
-20.74625000 2.91604400 -1.60795900
-20.72577000 2.46742200 -1.60795900
-20.70529000 1.57017700 -1.60795900
-20.68481000 2.91604400 -1.60795900
-20.66433000 3.36466600 -1.57261900
-20.64385000 2.46742200 -1.60795900
-20.62337000 3.36466600 -1.59025800
-20.60289000 2.91604400 -1.60795900
-20.58241000 2.46742200 -1.60795900
-20.56193000 2.01879900 -1.60795900
-20.54145000 2.46742200 -1.60795900
-20.52097000 2.01879900 -1.60795900
-20.50049000 2.91604400 -1.60795900
-20.48001000 2.91604400 -1.59025800
-20.45953000 2.91604400 -1.60795900
-20.43905000 3.36466600 -1.59025800
-20.41857000 2.46742200 -1.59025800
-20.39809000 2.46742200 -1.60795900
-20.37761000 2.01879900 -1.60795900
-20.35713000 2.46742200 -1.59025800
-20.33665000 2.46742200 -1.57261900
-20.31617000 2.91604400 -1.60795900
-20.29569000 3.36466600 -1.57261900
-20.27521000 2.46742200 -1.59025800
-20.25473000 2.91604400 -1.60795900
-20.23425000 2.46742200 -1.59025800
-20.21377000 2.46742200 -1.60795900
-20.19329000 1.57017700 -1.60795900
-20.17281000 2.46742200 -1.60795900
-20.15233000 2.91604400 -1.55497900
-20.13185000 2.91604400 -1.59025800
-20.11137000 3.36466600 -1.57261900
-20.09089000 2.46742200 -1.59025800
-20.07041000 2.91604400 -1.60795900
-20.04993000 1.57017700 -1.62559900
-20.02945000 2.46742200 -1.59025800
-20.00897000 1.57017700 -1.59025800
-19.98849000 2.46742200 -1.59025800
-19.96801000 2.91604400 -1.55497900
-19.94753000 2.91604400 -1.59025800
-19.92705000 3.36466600 -1.59025800
-19.90657000 2.46742200 -1.59025800
-19.88609000 2.46742200 -1.60795900
-19.86561000 1.57017700 -1.60795900
-19.84513000 2.91604400 -1.59025800
-19.82465000 2.91604400 -1.55497900
-19.80417000 2.91604400 -1.59025800
-19.78369000 2.91604400 -1.57261900
-19.76321000 2.91604400 -1.59025800
-19.74273000 2.91604400 -1.59025800
-19.72225000 2.46742200 -1.59025800
-19.70177000 2.46742200 -1.59025800
-19.68129000 1.57017700 1.58720700
-19.66081000 2.91604400 1.58720700
-19.64033000 3.36466600 1.62254700
-19.61985000 2.46742200 1.58720700
-19.59937000 15.92914000 1.60484600
-19.57889000 14.13465000 1.58720700
-19.55841000 13.68450000 1.58720700
-19.53793000 11.89001000 1.56956700
-19.51745000 11.44139000 1.58720700
-19.49697000 10.54414000 1.58720700
-19.47649000 10.54414000 1.58720700
-19.45601000 10.54414000 1.62254700
-19.43553000 9.19827800 1.60484600
-19.41505000 9.19827800 1.60484600
-19.39457000 8.30103400 1.58720700
-19.37409000 7.85088700 1.58720700
-19.35361000 6.50502000 1.58720700
-19.33313000 6.95364200 1.58720700
-19.31265000 6.95364200 1.64018700
-19.29217000 6.50502000 1.62254700
-19.27169000 6.95364200 1.62254700
-19.25121000 5.60777600 1.60484600
-19.23073000 5.15915400 1.58720700
-19.21025000 4.26191000 1.58720700
-19.18977000 5.15915400 1.58720700
-19.16929000 4.26191000 1.58720700
-19.14881000 4.71053200 1.60484600
-19.12833000 5.15915400 1.62254700
-19.10785000 4.26191000 1.58720700
-19.08737000 4.71053200 1.62254700
-19.06689000 4.26191000 1.58720700
-19.04641000 3.36466600 1.58720700
-19.02593000 3.36466600 1.58720700
-19.00545000 3.36466600 1.58720700
-18.98497000 3.36466600 1.62254700
-18.96449000 3.36466600 1.58720700
-18.94401000 4.26191000 1.62254700
-18.92353000 3.36466600 1.58720700
-18.90305000 3.36466600 1.60484600
-18.88257000 3.36466600 1.60484600
-18.86209000 3.36466600 1.58720700
-18.84161000 2.46742200 1.58720700
-18.82113000 3.36466600 1.58720700
-18.80065000 3.36466600 1.62254700
-18.78017000 3.36466600 1.58720700
-18.75969000 3.36466600 1.62254700
-18.73921000 3.36466600 1.58720700
-18.71873000 2.91604400 1.58720700
-18.69825000 2.01879900 1.56956700
-18.67777000 2.91604400 1.58720700
-18.65729000 2.46742200 1.56956700
-18.63681000 2.91604400 1.58720700
-18.61633000 3.36466600 1.62254700
-18.59585000 2.91604400 1.58720700
-18.57537000 3.36466600 1.60484600
-18.55489000 2.91604400 1.58720700
-18.53441000 2.91604400 1.58720700
-18.51393000 1.57017700 1.58720700
-18.49345000 2.46742200 1.58720700
-18.47297000 2.91604400 1.62254700
-18.45249000 2.91604400 -1.59025800
-18.43201000 3.36466600 -1.57261900
-18.41153000 2.46742200 -1.59025800
-18.39105000 2.91604400 -1.60795900
-18.37057000 2.91604400 -1.60795900
-18.35009000 2.46742200 -1.60795900
-18.32961000 1.57017700 -1.60795900
-18.30913000 2.46742200 -1.60795900
-18.28865000 2.91604400 -1.59025800
-18.26817000 2.46742200 -1.60795900
-18.24769000 3.36466600 -1.59025800
-18.22721000 2.46742200 -1.60795900
-18.20673000 2.46742200 -1.60795900
-18.18625000 1.57017700 -1.62559900
-18.16577000 2.46742200 -1.60795900
-18.14529000 1.57017700 -1.60795900
-18.12481000 2.91604400 -1.60795900
-18.10433000 3.36466600 -1.57261900
-18.08385000 2.46742200 -1.59025800
-18.06337000 3.36466600 -1.59025800
-18.04289000 2.91604400 -1.59025800
-18.02241000 2.46742200 -1.60795900
-18.00193000 1.57017700 -1.60795900
-17.98145000 2.46742200 -1.60795900
-17.96097000 3.36466600 -1.55497900
-17.94049000 2.46742200 -1.60795900
-17.92001000 3.36466600 -1.59025800
-17.89953000 2.91604400 -1.59025800
-17.87905000 2.46742200 -1.60795900
-17.85857000 3.36466600 -1.60795900
-17.83809000 2.46742200 -1.60795900
-17.81761000 1.57017700 -1.60795900
-17.79713000 2.46742200 -1.59025800
-17.77665000 2.91604400 -1.57261900
-17.75617000 2.46742200 -1.59025800
-17.73569000 3.36466600 -1.57261900
-17.71521000 2.91604400 -1.59025800
-17.69473000 2.46742200 -1.60795900
-17.67425000 1.57017700 -1.62559900
-17.65377000 2.46742200 -1.59025800
-17.63329000 2.46742200 -1.59025800
-17.61281000 2.91604400 -1.59025800
-17.59233000 3.36466600 -1.57261900
-17.57185000 2.46742200 -1.59025800
-17.55137000 2.91604400 -1.59025800
-17.53089000 2.46742200 -1.60795900
-17.51041000 2.46742200 -1.60795900
-17.48993000 2.01879900 -1.60795900
-17.46945000 2.91604400 -1.59025800
-17.44897000 2.91604400 -1.55497900
-17.42849000 2.91604400 -1.59025800
-17.40801000 2.91604400 -1.57261900
-17.38753000 2.46742200 -1.59025800
-17.36705000 2.46742200 -1.60795900
-17.34657000 1.57017700 -1.62559900
-17.32609000 2.46742200 -1.59025800
-17.30561000 1.57017700 -1.59025800
-17.28513000 2.91604400 -1.59025800
-17.26465000 2.91604400 -1.55497900
-17.24417000 2.46742200 -1.59025800
-17.22369000 3.36466600 1.58720700
-17.20321000 2.46742200 1.58720700
-17.18273000 2.91604400 1.58720700
-17.16225000 2.01879900 1.56956700
-17.14177000 17.72363000 1.58720700
-17.12129000 17.27500000 1.62254700
-17.10081000 15.92914000 1.58720700
-17.08033000 15.92914000 1.62254700
-17.05985000 14.13465000 1.58720700
-17.03937000 13.68450000 1.58720700
-17.01889000 12.33863000 1.58720700
-16.99841000 11.44139000 1.58720700
-16.97793000 10.09552000 1.58720700
-16.95745000 10.54414000 1.60484600
-16.93697000 10.09552000 1.64018700
-16.91649000 9.19827800 1.62254700
-16.89601000 9.19827800 1.62254700
-16.87553000 8.30103400 1.58720700
-16.85505000 7.85088700 1.58720700
-16.83457000 6.50502000 1.56956700
-16.81409000 6.95364200 1.58720700
-16.79361000 5.60777600 1.58720700
-16.77313000 6.05639800 1.58720700
-16.75265000 6.50502000 1.62254700
-16.73217000 5.60777600 1.60484600
-16.71169000 6.05639800 1.62254700
-16.69121000 5.15915400 1.60484600
-16.67073000 4.71053200 1.58720700
-16.65025000 3.81328800 1.58720700
-16.62977000 4.71053200 1.60484600
-16.60929000 4.71053200 1.62254700
-16.58881000 4.26191000 1.60484600
-16.56833000 4.71053200 1.62254700
-16.54785000 4.26191000 1.58720700
-16.52737000 3.81328800 1.58720700
-16.50689000 3.81328800 1.60484600
-16.48641000 3.36466600 1.58720700
-16.46593000 2.91604400 1.58720700
-16.44545000 3.36466600 1.62254700
-16.42497000 3.36466600 1.62254700
-16.40449000 3.36466600 1.62254700
-16.38401000 3.81328800 1.62254700
-16.36353000 3.36466600 1.58720700
-16.34305000 2.91604400 1.58720700
-16.32257000 2.46742200 1.56956700
-16.30209000 3.36466600 1.58720700
-16.28161000 2.91604400 1.60484600
-16.26113000 2.91604400 1.58720700
-16.24065000 3.36466600 1.62254700
-16.22017000 2.91604400 1.58720700
-16.19969000 3.36466600 1.60484600
-16.17921000 2.91604400 1.58720700
-16.15873000 2.46742200 1.58720700
-16.13825000 2.01879900 1.58720700
-16.11777000 2.91604400 1.58720700
-16.09729000 3.36466600 1.62254700
-16.07681000 2.91604400 1.58720700
-16.05633000 3.36466600 1.62254700
-16.03585000 2.91604400 1.58720700
-16.01537000 2.91604400 1.58720700
-15.99489000 2.46742200 -1.62559900
-15.97441000 2.46742200 -1.60795900
-15.95393000 1.57017700 -1.60795900
-15.93345000 2.46742200 -1.60795900
-15.91297000 2.91604400 -1.57261900
-15.89249000 2.46742200 -1.60795900
-15.87201000 2.91604400 -1.59025800
-15.85153000 2.46742200 -1.60795900
-15.83105000 2.46742200 -1.60795900
-15.81057000 1.57017700 -1.60795900
-15.79009000 2.46742200 -1.60795900
-15.76961000 2.91604400 -1.57261900
-15.74913000 2.46742200 -1.60795900
-15.72865000 3.36466600 -1.57261900
-15.70817000 2.46742200 -1.60795900
-15.68769000 2.91604400 -1.60795900
-15.66721000 2.46742200 -1.59025800
-15.64673000 2.46742200 -1.60795900
-15.62625000 1.57017700 -1.60795900
-15.60577000 2.46742200 -1.60795900
-15.58529000 2.91604400 -1.57261900
-15.56481000 2.46742200 -1.60795900
-15.54433000 2.91604400 -1.59025800
-15.52385000 2.46742200 -1.59025800
-15.50337000 2.46742200 -1.60795900
-15.48289000 1.57017700 -1.62559900
-15.46241000 2.46742200 -1.60795900
-15.44193000 1.57017700 -1.60795900
-15.42145000 2.46742200 -1.59025800
-15.40097000 2.91604400 -1.57261900
-15.38049000 2.46742200 -1.59025800
-15.36001000 2.91604400 -1.59025800
-15.33953000 2.46742200 -1.59025800
-15.31905000 2.46742200 -1.60795900
-15.29857000 1.57017700 -1.60795900
-15.27809000 2.46742200 -1.59025800
-15.25761000 2.91604400 -1.55497900
-15.23713000 2.46742200 -1.59025800
-15.21665000 2.91604400 -1.57261900
-15.19617000 2.46742200 -1.59025800
-15.17569000 2.91604400 -1.60795900
-15.15521000 2.46742200 -1.59025800
-15.13473000 2.46742200 -1.60795900
-15.11425000 1.57017700 -1.60795900
-15.09377000 2.46742200 -1.59025800
-15.07329000 2.91604400 -1.57261900
-15.05281000 2.46742200 -1.59025800
-15.03233000 2.91604400 -1.59025800
-15.01185000 2.46742200 -1.59025800
-14.99137000 2.46742200 -1.60795900
-14.97089000 1.57017700 -1.60795900
-14.95041000 2.46742200 -1.59025800
-14.92993000 2.46742200 -1.57261900
-14.90945000 2.46742200 -1.59025800
-14.88897000 3.36466600 -1.55497900
-14.86849000 2.46742200 -1.59025800
-14.84801000 2.91604400 -1.59025800
-14.82753000 2.91604400 -1.59025800
-14.80705000 2.46742200 -1.59025800
-14.78657000 1.57017700 -1.60795900
-14.76609000 2.46742200 1.58720700
-14.74561000 2.91604400 1.62254700
-14.72513000 2.46742200 1.58720700
-14.70465000 3.36466600 1.62254700
-14.68417000 15.92914000 1.58720700
-14.66369000 17.27500000 1.58720700
-14.64321000 15.92914000 1.58720700
-14.62273000 15.03189000 1.58720700
-14.60225000 13.23588000 1.58720700
-14.58177000 13.23588000 1.62254700
-14.56129000 12.78726000 1.62254700
-14.54081000 11.44139000 1.60484600
-14.52033000 11.44139000 1.62254700
-14.49985000 10.09552000 1.62254700
-14.47937000 9.64690000 1.58720700
-14.45889000 8.30103400 1.58720700
-14.43841000 8.30103400 1.58720700
-14.41793000 7.85088700 1.62254700
-14.39745000 7.40226500 1.60484600
-14.37697000 7.85088700 1.62254700
-14.35649000 6.95364200 1.58720700
-14.33601000 6.95364200 1.60484600
-14.31553000 6.05639800 1.58720700
-14.29505000 5.60777600 1.58720700
-14.27457000 4.71053200 1.58720700
-14.25409000 5.15915400 1.58720700
-14.23361000 5.15915400 1.62254700
-14.21313000 4.71053200 1.62254700
-14.19265000 5.15915400 1.62254700
-14.17217000 4.26191000 1.58720700
-14.15169000 4.26191000 1.58720700
-14.13121000 2.91604400 1.55192700
-14.11073000 3.81328800 1.58720700
-14.09025000 3.36466600 1.58720700
-14.06977000 3.36466600 1.58720700
-14.04929000 4.26191000 1.62254700
-14.02881000 3.36466600 1.60484600
-14.00833000 4.26191000 1.62254700
-13.98785000 3.36466600 1.58720700
-13.96737000 3.36466600 1.58720700
-13.94689000 2.46742200 1.58720700
-13.92641000 3.36466600 1.58720700
-13.90593000 3.36466600 1.64018700
-13.88545000 3.36466600 1.58720700
-13.86497000 3.36466600 1.62254700
-13.84449000 2.91604400 1.58720700
-13.82401000 3.36466600 1.58720700
-13.80353000 2.91604400 1.60484600
-13.78305000 2.91604400 1.58720700
-13.76257000 2.01879900 1.58720700
-13.74209000 2.91604400 1.58720700
-13.72161000 3.36466600 1.62254700
-13.70113000 2.91604400 1.58720700
-13.68065000 3.36466600 1.62254700
-13.66017000 2.91604400 1.58720700
-13.63969000 2.91604400 1.58720700
-13.61921000 1.57017700 1.56956700
-13.59873000 2.91604400 1.58720700
-13.57825000 2.46742200 1.60484600
-13.55777000 2.91604400 1.58720700
-13.53729000 3.36466600 -1.55497900
-13.51681000 2.91604400 -1.60795900
-13.49633000 2.91604400 -1.60795900
-13.47585000 2.46742200 -1.60795900
-13.45537000 2.46742200 -1.60795900
-13.43489000 1.57017700 -1.62559900
-13.41441000 2.91604400 -1.60795900
-13.39393000 2.91604400 -1.57261900
-13.37345000 2.46742200 -1.60795900
-13.35297000 2.91604400 -1.59025800
-13.33249000 2.46742200 -1.60795900
-13.31201000 2.46742200 -1.60795900
-13.29153000 2.46742200 -1.62559900
-13.27105000 2.46742200 -1.60795900
-13.25057000 2.01879900 -1.60795900
-13.23009000 2.46742200 -1.60795900
-13.20961000 3.36466600 -1.57261900
-13.18913000 2.46742200 -1.60795900
-13.16865000 3.36466600 -1.59025800
-13.14817000 2.46742200 -1.60795900
-13.12769000 2.46742200 -1.60795900
-13.10721000 2.01879900 -1.60795900
-13.08673000 2.46742200 -1.60795900
-13.06625000 2.91604400 -1.57261900
-13.04577000 2.46742200 -1.60795900
-13.02529000 2.91604400 -1.57261900
-13.00481000 2.46742200 -1.60795900
-12.98433000 2.91604400 -1.60795900
-12.96385000 2.46742200 -1.60795900
-12.94337000 2.91604400 -1.60795900
-12.92289000 1.57017700 -1.60795900
-12.90241000 2.91604400 -1.59025800
-12.88193000 2.91604400 -1.57261900
-12.86145000 2.46742200 -1.59025800
-12.84097000 3.36466600 -1.59025800
-12.82049000 2.46742200 -1.59025800
-12.80001000 2.46742200 -1.60795900
-12.77953000 1.57017700 -1.62559900
-12.75905000 2.46742200 -1.59025800
-12.73857000 1.57017700 -1.60795900
-12.71809000 2.46742200 -1.59025800
-12.69761000 2.91604400 -1.57261900
-12.67713000 2.46742200 -1.59025800
-12.65665000 2.91604400 -1.59025800
-12.63617000 2.46742200 -1.59025800
-12.61569000 2.46742200 -1.60795900
-12.59521000 1.57017700 -1.60795900
-12.57473000 2.46742200 -1.59025800
-12.55425000 2.91604400 -1.55497900
-12.53377000 2.46742200 -1.59025800
-12.51329000 3.36466600 -1.55497900
-12.49281000 2.91604400 -1.59025800
-12.47233000 2.91604400 -1.60795900
-12.45185000 2.46742200 -1.59025800
-12.43137000 2.46742200 -1.59025800
-12.41089000 1.57017700 -1.59025800
-12.39041000 2.91604400 -1.59025800
-12.36993000 2.91604400 -1.55497900
-12.34945000 2.91604400 -1.59025800
-12.32897000 3.36466600 -1.57261900
-12.30849000 2.91604400 1.51658700
-12.28801000 2.46742200 1.56956700
-12.26753000 1.57017700 1.56956700
-12.24705000 2.46742200 1.58720700
-12.22657000 2.01879900 1.58720700
-12.20609000 8.74965700 1.58720700
-12.18561000 8.74965700 1.62254700
-12.16513000 8.30103400 1.60484600
-12.14465000 8.30103400 1.60484600
-12.12417000 6.95364200 1.58720700
-12.10369000 6.50502000 1.58720700
-12.08321000 6.05639800 1.58720700
-12.06273000 6.05639800 1.58720700
-12.04225000 6.50502000 1.64018700
-12.02177000 5.60777600 1.62254700
-12.00129000 6.05639800 1.62254700
-11.98081000 5.15915400 1.62254700
-11.96033000 5.15915400 1.58720700
-11.93985000 3.81328800 1.58720700
-11.91937000 4.26191000 1.58720700
-11.89889000 3.36466600 1.58720700
-11.87841000 4.26191000 1.62254700
-11.85793000 4.71053200 1.62254700
-11.83745000 3.81328800 1.60484600
-11.81697000 4.26191000 1.62254700
-11.79649000 3.81328800 1.62254700
-11.77601000 3.36466600 1.58720700
-11.75553000 3.36466600 1.58720700
-11.73505000 3.36466600 1.58720700
-11.71457000 3.36466600 1.62254700
-11.69409000 3.36466600 1.60484600
-11.67361000 3.81328800 1.62254700
-11.65313000 3.36466600 1.62254700
-11.63265000 3.36466600 1.58720700
-11.61217000 3.36466600 1.60484600
-11.59169000 2.91604400 1.58720700
-11.57121000 2.46742200 1.58720700
-11.55073000 3.36466600 1.60484600
-11.53025000 3.36466600 1.62254700
-11.50977000 2.91604400 1.60484600
-11.48929000 3.36466600 1.62254700
-11.46881000 2.91604400 1.60484600
-11.44833000 2.91604400 1.58720700
-11.42785000 1.57017700 1.56956700
-11.40737000 2.91604400 1.58720700
-11.38689000 2.01879900 1.58720700
-11.36641000 2.91604400 1.62254700
-11.34593000 3.36466600 1.62254700
-11.32545000 2.91604400 1.58720700
-11.30497000 3.36466600 1.58720700
-11.28449000 2.91604400 1.58720700
-11.26401000 2.91604400 1.58720700
-11.24353000 2.01879900 1.58720700
-11.22305000 2.91604400 1.58720700
-11.20257000 3.36466600 1.62254700
-11.18209000 2.46742200 1.58720700
-11.16161000 3.36466600 1.62254700
-11.14113000 2.91604400 1.58720700
-11.12065000 2.91604400 1.58720700
-11.10017000 2.91604400 1.58720700
-11.07969000 2.91604400 1.58720700
-11.05921000 1.57017700 -1.60795900
-11.03873000 2.91604400 -1.60795900
-11.01825000 2.91604400 -1.57261900
-10.99777000 2.46742200 -1.60795900
-10.97729000 3.36466600 -1.59025800
-10.95681000 2.46742200 -1.60795900
-10.93633000 2.91604400 -1.62559900
-10.91585000 1.57017700 -1.62559900
-10.89537000 2.46742200 -1.60795900
-10.87489000 2.01879900 -1.59025800
-10.85441000 2.91604400 -1.59025800
-10.83393000 3.36466600 -1.57261900
-10.81345000 2.91604400 -1.60795900
-10.79297000 2.91604400 -1.59025800
-10.77249000 2.91604400 -1.60795900
-10.75201000 2.46742200 -1.60795900
-10.73153000 1.57017700 -1.62559900
-10.71105000 2.46742200 -1.59025800
-10.69057000 3.36466600 -1.55497900
-10.67009000 2.91604400 -1.60795900
-10.64961000 3.36466600 -1.59025800
-10.62913000 2.91604400 -1.60795900
-10.60865000 2.91604400 -1.60795900
-10.58817000 1.57017700 -1.60795900
-10.56769000 2.46742200 -1.60795900
-10.54721000 1.57017700 -1.60795900
-10.52673000 2.91604400 -1.59025800
-10.50625000 2.91604400 -1.57261900
-10.48577000 2.91604400 -1.59025800
-10.46529000 3.36466600 -1.59025800
-10.44481000 2.91604400 -1.59025800
-10.42433000 2.46742200 -1.60795900
-10.40385000 2.01879900 -1.60795900
-10.38337000 2.46742200 -1.60795900
-10.36289000 2.91604400 -1.57261900
-10.34241000 2.91604400 -1.59025800
-10.32193000 3.36466600 -1.57261900
-10.30145000 2.91604400 -1.59025800
-10.28097000 2.91604400 -1.59025800
-10.26049000 2.46742200 -1.59025800
-10.24001000 2.46742200 -1.60795900
-10.21953000 1.57017700 -1.60795900
-10.19905000 2.91604400 -1.59025800
-10.17857000 2.91604400 -1.55497900
-10.15809000 2.91604400 -1.59025800
-10.13761000 3.36466600 -1.57261900
-10.11713000 2.46742200 -1.59025800
-10.09665000 2.46742200 -1.60795900
-10.07617000 1.57017700 -1.62559900
-10.05569000 2.91604400 -1.59025800
-10.03521000 2.01879900 -1.60795900
-10.01473000 2.91604400 -1.59025800
-9.99424800 3.36466600 -1.55497900
-9.97376800 2.91604400 -1.57261900
-9.95328700 3.36466600 -1.57261900
-9.93280800 2.46742200 -1.59025800
-9.91232800 2.91604400 -1.59025800
-9.89184800 1.57017700 -1.59025800
-9.87136700 2.46742200 -1.59025800
-9.85088700 3.36466600 -1.55497900
-9.83040800 2.91604400 1.58720700
-9.80992800 3.36466600 1.62254700
-9.78944800 2.91604400 1.58720700
-9.76896800 2.91604400 1.58720700
-9.74848700 10.09552000 1.58720700
-9.72800800 10.09552000 1.58720700
-9.70752800 8.74965700 1.58720700
-9.68704700 8.74965700 1.60484600
-9.66656800 8.74965700 1.62254700
-9.64608800 8.30103400 1.60484600
-9.62560800 8.30103400 1.62254700
-9.60512700 6.95364200 1.60484600
-9.58464700 6.95364200 1.58720700
-9.56416800 5.15915400 1.56956700
-9.54368800 6.05639800 1.58720700
-9.52320900 5.15915400 1.58720700
-9.50272800 5.60777600 1.60484600
-9.48224700 6.05639800 1.62254700
-9.46176800 5.15915400 1.60484600
-9.44128800 5.60777600 1.62254700
-9.42080800 4.71053200 1.62254700
-9.40032800 4.71053200 1.58720700
-9.37984800 3.36466600 1.58720700
-9.35936800 4.26191000 1.58720700
-9.33888700 4.26191000 1.64018700
-9.31840800 3.81328800 1.62254700
-9.29792800 4.71053200 1.62254700
-9.27744800 3.36466600 1.60484600
-9.25696800 3.81328800 1.58720700
-9.23648700 4.26191000 1.58720700
-9.21600800 3.36466600 1.58720700
-9.19552800 2.91604400 1.58720700
-9.17504800 3.36466600 1.60484600
-9.15456800 3.81328800 1.62254700
-9.13408800 3.36466600 1.60484600
-9.11360800 3.81328800 1.62254700
-9.09312800 3.36466600 1.60484600
-9.07264700 3.36466600 1.58720700
-9.05216800 2.46742200 1.58720700
-9.03168800 2.91604400 1.58720700
-9.01120900 2.91604400 1.62254700
-8.99072700 2.91604400 1.58720700
-8.97024700 3.81328800 1.62254700
-8.94976800 2.91604400 1.58720700
-8.92928800 3.36466600 1.58720700
-8.90880800 2.91604400 1.58720700
-8.88832800 2.91604400 1.58720700
-8.86784700 2.46742200 1.58720700
-8.84736800 2.91604400 1.58720700
-8.82688800 3.36466600 1.62254700
-8.80640800 2.91604400 1.58720700
-8.78592800 3.36466600 1.62254700
-8.76544800 2.91604400 1.58720700
-8.74496800 2.91604400 1.58720700
-8.72448700 1.57017700 1.56956700
-8.70400700 2.91604400 1.58720700
-8.68352800 2.01879900 1.58720700
-8.66304800 2.91604400 1.58720700
-8.64256900 3.36466600 1.62254700
-8.62208700 2.91604400 1.58720700
-8.60160700 3.36466600 -1.59025800
-8.58112800 2.91604400 -1.60795900
-8.56064800 2.91604400 -1.60795900
-8.54016800 1.57017700 -1.60795900
-8.51968800 2.91604400 -1.60795900
-8.49920700 2.91604400 -1.57261900
-8.47872800 2.91604400 -1.60795900
-8.45824700 3.36466600 -1.59025800
-8.43776800 2.46742200 -1.60795900
-8.41728800 2.91604400 -1.60795900
-8.39680800 2.91604400 -1.60795900
-8.37632800 2.91604400 -1.60795900
-8.35584700 2.01879900 -1.60795900
-8.33536800 2.91604400 -1.60795900
-8.31488800 3.36466600 -1.57261900
-8.29440800 2.46742200 -1.60795900
-8.27392800 3.36466600 -1.59025800
-8.25344800 2.91604400 -1.60795900
-8.23296800 2.91604400 -1.60795900
-8.21248800 1.57017700 -1.64323900
-8.19200700 2.46742200 -1.60795900
-8.17152800 2.46742200 -1.60795900
-8.15104800 2.46742200 -1.59025800
-8.13056900 3.36466600 -1.57261900
-8.11008700 2.91604400 -1.59025800
-8.08960700 2.91604400 -1.59025800
-8.06912800 2.91604400 -1.59025800
-8.04864800 2.46742200 -1.60795900
-8.02816900 1.57017700 -1.62559900
-8.00768800 2.91604400 -1.59025800
-7.98720800 3.36466600 -1.55497900
-7.96672800 2.91604400 -1.59025800
-7.94624800 3.36466600 -1.57261900
-7.92576700 2.91604400 -1.59025800
-7.90528800 2.91604400 -1.60795900
-7.88480800 2.46742200 -1.59025800
-7.86432800 2.46742200 -1.60795900
-7.84384700 2.01879900 -1.60795900
-7.82336800 2.91604400 -1.59025800
-7.80288800 2.91604400 -1.57261900
-7.78240800 2.91604400 -1.59025800
-7.76192800 3.36466600 -1.59025800
-7.74144800 2.91604400 -1.59025800
-7.72096800 2.46742200 -1.60795900
-7.70048800 2.01879900 -1.60795900
-7.68000800 2.91604400 -1.59025800
-7.65952800 2.46742200 -1.57261900
-7.63904800 2.91604400 -1.59025800
-7.61856800 3.36466600 -1.57261900
-7.59808800 2.91604400 -1.59025800
-7.57760800 3.36466600 -1.59025800
-7.55712700 2.91604400 -1.59025800
-7.53664800 2.46742200 -1.60795900
-7.51616800 2.01879900 -1.60795900
-7.49568800 2.91604400 -1.59025800
-7.47520800 3.36466600 -1.55497900
-7.45472800 2.91604400 -1.59025800
-7.43424800 3.36466600 -1.57261900
-7.41376800 2.91604400 -1.59025800
-7.39328800 2.91604400 -1.60795900
-7.37280800 2.01879900 1.53422700
-7.35232800 2.91604400 1.58720700
-7.33184800 2.01879900 1.56956700
-7.31136800 2.91604400 1.58720700
-7.29088800 3.36466600 1.62254700
-7.27040800 17.72363000 1.58720700
-7.24992800 17.27500000 1.62254700
-7.22944800 15.92914000 1.58720700
-7.20896800 14.58327000 1.58720700
-7.18848800 13.23588000 1.58720700
-7.16800800 12.33863000 1.58720700
-7.14752800 11.89001000 1.62254700
-7.12704800 11.44139000 1.60484600
-7.10656800 11.44139000 1.62254700
-7.08608800 10.09552000 1.60484600
-7.06560800 9.64690000 1.60484600
-7.04512800 8.74965700 1.58720700
-7.02464800 8.30103400 1.58720700
-7.00416800 6.95364200 1.58720700
-6.98368700 7.85088700 1.60484600
-6.96320800 7.40226500 1.62254700
-6.94272800 6.50502000 1.62254700
-6.92224800 6.95364200 1.62254700
-6.90176800 6.05639800 1.62254700
-6.88128800 6.05639800 1.58720700
-6.86080800 4.71053200 1.56956700
-6.84032800 5.15915400 1.58720700
-6.81984800 4.71053200 1.58720700
-6.79936800 4.71053200 1.60484600
-6.77888800 5.15915400 1.62254700
-6.75840800 4.71053200 1.60484600
-6.73792800 5.15915400 1.60484600
-6.71744800 4.26191000 1.58720700
-6.69696800 4.26191000 1.58720700
-6.67648700 3.36466600 1.56956700
-6.65600800 3.81328800 1.60484600
-6.63552800 4.26191000 1.64018700
-6.61504800 3.36466600 1.60484600
-6.59456800 4.26191000 1.62254700
-6.57408800 3.36466600 1.60484600
-6.55360800 3.36466600 1.58720700
-6.53312800 3.36466600 1.58720700
-6.51264800 3.36466600 1.58720700
-6.49216700 2.91604400 1.58720700
-6.47168800 3.36466600 1.58720700
-6.45120800 3.36466600 1.62254700
-6.43072800 3.36466600 1.60484600
-6.41024800 3.81328800 1.62254700
-6.38976800 3.36466600 1.58720700
-6.36928700 2.91604400 1.58720700
-6.34880800 2.46742200 1.56956700
-6.32832800 2.91604400 1.58720700
-6.30784800 2.46742200 1.60484600
-6.28736800 2.91604400 1.58720700
-6.26688800 3.36466600 1.62254700
-6.24640800 2.91604400 1.58720700
-6.22592800 3.36466600 1.58720700
-6.20544800 2.91604400 1.58720700
-6.18496800 2.91604400 1.58720700
-6.16448800 2.01879900 1.58720700
-6.14400800 2.91604400 -1.51963900
-6.12352800 3.36466600 -1.55497900
-6.10304800 2.46742200 -1.59025800
-6.08256800 3.36466600 -1.59025800
-6.06208800 2.91604400 -1.60795900
-6.04160800 2.91604400 -1.60795900
-6.02112800 2.46742200 -1.62559900
-6.00064800 2.91604400 -1.60795900
-5.98016800 2.01879900 -1.60795900
-5.95968800 2.91604400 -1.60795900
-5.93920800 3.36466600 -1.57261900
-5.91872800 2.91604400 -1.60795900
-5.89824800 3.36466600 -1.59025800
-5.87776800 2.91604400 -1.60795900
-5.85728800 2.91604400 -1.60795900
-5.83680800 2.46742200 -1.62559900
-5.81632800 2.91604400 -1.60795900
-5.79584700 2.91604400 -1.57261900
-5.77536800 2.91604400 -1.59025800
-5.75488800 3.36466600 -1.57261900
-5.73440800 2.91604400 -1.60795900
-5.71392800 3.36466600 -1.60795900
-5.69344800 2.91604400 -1.60795900
-5.67296800 2.91604400 -1.60795900
-5.65248800 2.01879900 -1.60795900
-5.63200800 2.91604400 -1.59025800
-5.61152800 3.36466600 -1.57261900
-5.59104800 2.91604400 -1.60795900
-5.57056800 3.36466600 -1.57261900
-5.55008800 2.91604400 -1.60795900
-5.52960800 2.46742200 -1.60795900
-5.50912800 1.57017700 -1.62559900
-5.48864700 2.91604400 -1.59025800
-5.46816800 1.57017700 -1.59025800
-5.44768800 2.91604400 -1.59025800
-5.42720800 3.36466600 -1.57261900
-5.40672800 2.91604400 -1.60795900
-5.38624800 3.36466600 -1.59025800
-5.36576800 2.91604400 -1.59025800
-5.34528800 2.91604400 -1.60795900
-5.32480800 2.01879900 -1.60795900
-5.30432700 2.91604400 -1.59025800
-5.28384800 3.36466600 -1.55497900
-5.26336800 2.91604400 -1.59025800
-5.24288800 3.36466600 -1.57261900
-5.22240800 2.91604400 -1.59025800
-5.20192800 3.36466600 -1.59025800
-5.18144800 2.91604400 -1.59025800
-5.16096800 2.91604400 -1.59025800
-5.14048800 2.01879900 -1.60795900
-5.12000800 2.91604400 -1.59025800
-5.09952800 3.36466600 -1.57261900
-5.07904800 3.36466600 -1.59025800
-5.05856800 3.36466600 -1.57261900
-5.03808800 2.91604400 -1.59025800
-5.01760800 2.91604400 -1.60795900
-4.99712800 2.01879900 -1.62559900
-4.97664800 2.91604400 -1.59025800
-4.95616800 2.46742200 -1.59025800
-4.93568800 2.91604400 -1.59025800
-4.91520800 3.36466600 -1.55497900
-4.89472800 2.91604400 1.58720700
-4.87424800 3.36466600 1.58720700
-4.85376800 2.91604400 1.58720700
-4.83328800 2.91604400 1.58720700
-4.81280800 12.33863000 1.56956700
-4.79232800 12.33863000 1.58720700
-4.77184800 12.33863000 1.64018700
-4.75136800 10.99277000 1.60484600
-4.73088800 10.99277000 1.62254700
-4.71040800 10.09552000 1.58720700
-4.68992800 9.64690000 1.58720700
-4.66944800 8.30103400 1.58720700
-4.64896800 8.30103400 1.58720700
-4.62848800 6.95364200 1.58720700
-4.60800700 7.40226500 1.62254700
-4.58752800 7.40226500 1.64018700
-4.56704800 6.95364200 1.58720700
-4.54656800 6.95364200 1.62254700
-4.52608800 6.05639800 1.60484600
-4.50560800 6.05639800 1.58720700
-4.48512800 5.15915400 1.58720700
-4.46464800 5.60777600 1.58720700
-4.44416800 5.15915400 1.62254700
-4.42368800 5.15915400 1.60484600
-4.40320800 5.60777600 1.62254700
-4.38272800 4.71053200 1.58720700
-4.36224800 5.15915400 1.62254700
-4.34176800 4.71053200 1.62254700
-4.32128800 3.81328800 1.58720700
-4.30080700 3.36466600 1.58720700
-4.28032800 3.81328800 1.58720700
-4.25984800 4.26191000 1.64018700
-4.23936800 3.36466600 1.62254700
-4.21888800 4.26191000 1.62254700
-4.19840800 3.81328800 1.58720700
-4.17792800 3.36466600 1.58720700
-4.15744800 2.46742200 1.56956700
-4.13696800 3.36466600 1.58720700
-4.11648800 2.91604400 1.58720700
-4.09600800 3.36466600 1.60484600
-4.07552800 3.81328800 1.62254700
-4.05504800 3.36466600 1.58720700
-4.03456800 3.36466600 1.58720700
-4.01408800 2.91604400 1.58720700
-3.99360800 2.91604400 1.58720700
-3.97312800 2.46742200 1.58720700
-3.95264800 3.36466600 1.58720700
-3.93216800 3.36466600 1.64018700
-3.91168800 3.36466600 1.58720700
-3.89120800 3.81328800 1.62254700
-3.87072800 3.36466600 1.58720700
-3.85024800 3.36466600 1.58720700
-3.82976800 3.36466600 1.60484600
-3.80928800 2.91604400 1.58720700
-3.78880800 2.46742200 1.58720700
-3.76832800 2.91604400 1.58720700
-3.74784800 3.36466600 1.62254700
-3.72736800 2.91604400 1.58720700
-3.70688800 3.36466600 1.60484600
-3.68640800 2.91604400 1.58720700
-3.66592800 2.91604400 -1.60795900
-3.64544800 1.57017700 -1.64323900
-3.62496800 2.91604400 -1.60795900
-3.60448800 2.46742200 -1.60795900
-3.58400800 2.46742200 -1.60795900
-3.56352800 3.36466600 -1.57261900
-3.54304800 2.91604400 -1.60795900
-3.52256800 3.36466600 -1.59025800
-3.50208800 2.91604400 -1.59025800
-3.48160800 2.91604400 -1.60795900
-3.46112800 1.57017700 -1.62559900
-3.44064800 2.91604400 -1.60795900
-3.42016800 3.36466600 -1.57261900
-3.39968800 2.91604400 -1.60795900
-3.37920800 3.36466600 -1.59025800
-3.35872800 2.91604400 -1.60795900
-3.33824800 2.91604400 -1.60795900
-3.31776800 3.36466600 -1.60795900
-3.29728800 2.91604400 -1.60795900
-3.27680800 1.57017700 -1.60795900
-3.25632800 2.91604400 -1.59025800
-3.23584800 2.91604400 -1.57261900
-3.21536800 2.91604400 -1.59025800
-3.19488800 3.36466600 -1.59025800
-3.17440800 2.91604400 -1.59025800
-3.15392800 2.91604400 -1.60795900
-3.13344800 2.01879900 -1.62559900
-3.11296800 2.91604400 -1.60795900
-3.09248800 2.46742200 -1.57261900
-3.07200800 2.91604400 -1.59025800
-3.05152800 3.36466600 -1.57261900
-3.03104800 2.91604400 -1.60795900
-3.01056800 3.36466600 -1.59025800
-2.99008800 2.91604400 -1.60795900
-2.96960800 2.91604400 -1.60795900
-2.94912800 2.01879900 -1.60795900
-2.92864800 2.91604400 -1.59025800
-2.90816800 3.36466600 -1.55497900
-2.88768800 2.91604400 -1.59025800
-2.86720800 3.36466600 -1.57261900
-2.84672800 2.91604400 -1.59025800
-2.82624800 2.91604400 -1.60795900
-2.80576800 2.46742200 -1.62559900
-2.78528800 2.91604400 -1.59025800
-2.76480800 2.01879900 -1.60795900
-2.74432800 2.91604400 -1.59025800
-2.72384800 3.36466600 -1.57261900
-2.70336800 2.91604400 -1.59025800
-2.68288800 3.36466600 -1.57261900
-2.66240800 2.91604400 -1.59025800
-2.64192800 2.91604400 -1.60795900
-2.62144800 2.01879900 -1.60795900
-2.60096800 2.91604400 -1.59025800
-2.58048800 2.91604400 -1.55497900
-2.56000800 2.91604400 -1.59025800
-2.53952800 3.36466600 -1.55497900
-2.51904800 2.91604400 -1.57261900
-2.49856800 2.91604400 -1.59025800
-2.47808800 2.91604400 -1.59025800
-2.45760800 2.91604400 -1.59025800
-2.43712800 2.01879900 1.56956700
-2.41664800 2.91604400 1.58720700
-2.39616800 3.36466600 1.62254700
-2.37568800 2.91604400 1.58720700
-2.35520800 14.13465000 1.62254700
-2.33472800 15.48051000 1.60484600
-2.31424800 14.58327000 1.58720700
-2.29376800 12.33863000 1.56956700
-2.27328800 12.33863000 1.58720700
-2.25280800 10.99277000 1.58720700
-2.23232800 10.99277000 1.60484600
-2.21184800 10.54414000 1.62254700
-2.19136800 10.09552000 1.60484600
-2.17088800 10.09552000 1.62254700
-2.15040800 8.74965700 1.60484600
-2.12992800 8.30103400 1.58720700
-2.10944800 6.95364200 1.58720700
-2.08896800 7.40226500 1.58720700
-2.06848800 7.40226500 1.64018700
-2.04800800 6.50502000 1.58720700
-2.02752800 6.95364200 1.62254700
-2.00704800 6.05639800 1.62254700
-1.98656800 6.05639800 1.58720700
-1.96608800 5.15915400 1.60484600
-1.94560800 5.15915400 1.58720700
-1.92512800 4.26191000 1.58720700
-1.90464800 5.15915400 1.62254700
-1.88416800 5.15915400 1.62254700
-1.86368800 4.71053200 1.62254700
-1.84320800 5.15915400 1.62254700
-1.82272800 4.26191000 1.60484600
-1.80224800 4.26191000 1.58720700
-1.78176800 3.36466600 1.58720700
-1.76128800 3.81328800 1.58720700
-1.74080800 3.36466600 1.58720700
-1.72032800 3.81328800 1.58720700
-1.69984800 4.26191000 1.62254700
-1.67936800 3.36466600 1.62254700
-1.65888800 3.36466600 1.58720700
-1.63840800 3.36466600 1.60484600
-1.61792800 3.36466600 1.58720700
-1.59744800 2.46742200 1.58720700
-1.57696800 3.36466600 1.60484600
-1.55648800 3.36466600 1.64018700
-1.53600800 3.36466600 1.60484600
-1.51552800 3.36466600 1.62254700
-1.49504800 2.91604400 1.58720700
-1.47456800 2.91604400 1.58720700
-1.45408800 2.46742200 1.56956700
-1.43360800 2.91604400 1.58720700
-1.41312800 2.46742200 1.58720700
-1.39264800 2.91604400 1.58720700
-1.37216800 3.36466600 1.62254700
-1.35168800 2.91604400 1.58720700
-1.33120800 3.36466600 1.60484600
-1.31072800 2.91604400 1.58720700
-1.29024800 2.91604400 1.58720700
-1.26976800 2.46742200 1.58720700
-1.24928800 2.91604400 1.58720700
-1.22880800 2.91604400 1.62254700
-1.20832800 2.91604400 -1.55497900
-1.18784800 3.36466600 -1.59025800
-1.16736800 2.91604400 -1.59025800
-1.14688800 2.91604400 -1.60795900
-1.12640800 2.91604400 -1.59025800
-1.10592800 2.46742200 -1.60795900
-1.08544800 1.57017700 -1.60795900
-1.06496800 2.91604400 -1.60795900
-1.04448800 3.36466600 -1.57261900
-1.02400800 2.91604400 -1.60795900
-1.00352800 3.36466600 -1.59025800
-0.98304790 2.91604400 -1.59025800
-0.96256790 2.91604400 -1.62559900
-0.94208780 1.57017700 -1.66087800
-0.92160790 2.46742200 -1.60795900
-0.90112780 2.01879900 -1.60795900
-0.88064780 2.46742200 -1.60795900
-0.86016790 3.36466600 -1.57261900
-0.83968780 2.46742200 -1.60795900
-0.81920780 3.36466600 -1.59025800
-0.79872790 2.91604400 -1.59025800
-0.77824780 2.91604400 -1.60795900
-0.75776780 1.57017700 -1.62559900
-0.73728790 2.46742200 -1.60795900
-0.71680780 3.36466600 -1.55497900
-0.69632780 2.46742200 -1.60795900
-0.67584790 3.36466600 -1.57261900
-0.65536790 2.91604400 -1.59025800
-0.63488780 2.91604400 -1.60795900
-0.61440780 2.46742200 -1.59025800
-0.59392790 2.46742200 -1.60795900
-0.57344780 1.57017700 -1.60795900
-0.55296780 2.91604400 -1.59025800
-0.53248790 2.91604400 -1.57261900
-0.51200780 2.91604400 -1.59025800
-0.49152790 3.36466600 -1.59025800
-0.47104780 2.91604400 -1.59025800
-0.45056780 2.46742200 -1.60795900
-0.43008790 1.57017700 -1.62559900
-0.40960780 2.46742200 -1.60795900
-0.38912790 2.46742200 -1.59025800
-0.36864790 2.46742200 -1.59025800
-0.34816780 3.36466600 -1.57261900
-0.32768790 2.91604400 -1.59025800
-0.30720790 2.91604400 -1.59025800
-0.28672780 2.91604400 -1.59025800
-0.26624780 2.46742200 -1.59025800
-0.24576780 1.57017700 -1.60795900
-0.22528790 2.46742200 -1.59025800
-0.20480780 2.91604400 -1.55497900
-0.18432780 2.91604400 -1.59025800
-0.16384780 3.36466600 -1.57261900
-0.14336780 2.91604400 -1.59025800
-0.12288780 2.91604400 -1.59025800
-0.10240780 2.91604400 -1.60795900
-0.08192785 2.46742200 -1.59025800
-0.06144785 2.01879900 -1.59025800
-0.04096785 2.46742200 -1.59025800
-0.02048785 2.91604400 -1.57261900
-0.00000785 2.46742200 -1.59025800
0.02047215 3.36466600 1.51658700
0.04095215 2.46742200 1.58720700
0.06143215 2.91604400 1.58720700
0.08191215 2.01879900 1.58720700
0.10239220 2.91604400 1.58720700
0.12287220 16.37776000 1.62254700
0.14335220 15.92914000 1.58720700
0.16383220 15.48051000 1.62254700
0.18431210 14.13465000 1.58720700
0.20479220 13.68450000 1.60484600
0.22527210 11.89001000 1.58720700
0.24575220 10.99277000 1.58720700
0.26623220 10.09552000 1.58720700
0.28671210 10.09552000 1.60484600
0.30719210 10.09552000 1.64018700
0.32767220 8.74965700 1.60484600
0.34815220 8.74965700 1.62254700
0.36863210 7.85088700 1.60484600
0.38911220 7.40226500 1.58720700
0.40959220 6.50502000 1.56956700
0.43007220 6.50502000 1.58720700
0.45055210 5.60777600 1.58720700
0.47103210 6.50502000 1.62254700
0.49151210 6.50502000 1.62254700
0.51199220 5.15915400 1.60484600
0.53247210 6.05639800 1.62254700
0.55295220 5.15915400 1.58720700
0.57343210 4.71053200 1.58720700
0.59391210 3.81328800 1.58720700
0.61439220 4.71053200 1.62254700
0.63487210 4.71053200 1.64018700
0.65535210 4.26191000 1.60484600
0.67583220 4.71053200 1.62254700
0.69631220 4.26191000 1.58720700
0.71679210 4.26191000 1.58720700
0.73727210 3.81328800 1.60484600
0.75775220 3.36466600 1.58720700
0.77823210 2.91604400 1.58720700
0.79871210 3.36466600 1.62254700
0.81919220 3.81328800 1.62254700
0.83967210 3.36466600 1.58720700
0.86015210 3.81328800 1.62254700
0.88063220 3.36466600 1.58720700
0.90111210 3.36466600 1.58720700
0.92159220 2.01879900 1.56956700
0.94207220 3.36466600 1.58720700
0.96255210 2.46742200 1.58720700
0.98303220 2.91604400 1.58720700
1.00351200 3.36466600 1.62254700
1.02399200 2.91604400 1.58720700
1.04447200 3.36466600 1.60484600
1.06495200 2.91604400 1.58720700
1.08543200 2.91604400 1.58720700
1.10591200 2.01879900 1.56956700
1.12639200 2.91604400 1.58720700
1.14687200 3.36466600 1.64018700
1.16735200 2.91604400 1.58720700
1.18783200 3.36466600 1.62254700
1.20831200 2.91604400 1.58720700
1.22879200 2.91604400 1.58720700
1.24927200 1.57017700 -1.53733900
1.26975200 2.46742200 -1.60795900
1.29023200 2.01879900 -1.60795900
1.31071200 2.91604400 -1.60795900
1.33119200 2.91604400 -1.59025800
1.35167200 2.46742200 -1.60795900
1.37215200 3.36466600 -1.59025800
1.39263200 2.91604400 -1.60795900
1.41311200 2.46742200 -1.60795900
1.43359200 2.01879900 -1.60795900
1.45407200 2.46742200 -1.60795900
1.47455200 2.91604400 -1.59025800
1.49503200 2.46742200 -1.60795900
1.51551200 3.36466600 -1.57261900
1.53599200 2.91604400 -1.60795900
1.55647200 2.91604400 -1.60795900
1.57695200 2.91604400 -1.60795900
1.59743200 2.91604400 -1.60795900
1.61791200 1.57017700 -1.60795900
1.63839200 2.91604400 -1.60795900
1.65887200 2.91604400 -1.57261900
1.67935200 2.46742200 -1.59025800
1.69983200 3.36466600 -1.59025800
1.72031200 2.46742200 -1.59025800
1.74079200 2.91604400 -1.60795900
1.76127200 1.57017700 -1.62559900
1.78175200 2.46742200 -1.60795900
1.80223200 1.57017700 -1.60795900
1.82271200 2.91604400 -1.60795900
1.84319200 3.36466600 -1.57261900
1.86367200 2.91604400 -1.59025800
1.88415200 3.36466600 -1.59025800
1.90463200 2.46742200 -1.59025800
1.92511200 2.46742200 -1.60795900
1.94559200 1.57017700 -1.60795900
1.96607200 2.46742200 -1.59025800
1.98655200 2.91604400 -1.55497900
2.00703200 2.91604400 -1.59025800
2.02751200 3.36466600 -1.57261900
2.04799200 2.91604400 -1.59025800
2.06847200 2.91604400 -1.60795900
2.08895200 2.91604400 -1.59025800
2.10943200 2.46742200 -1.59025800
2.12991200 2.01879900 -1.60795900
2.15039200 2.91604400 -1.59025800
2.17087200 2.91604400 -1.57261900
2.19135200 2.46742200 -1.59025800
2.21183200 3.36466600 -1.59025800
2.23231200 2.91604400 -1.59025800
2.25279200 2.46742200 -1.60795900
2.27327200 1.57017700 -1.62559900
2.29375200 2.46742200 -1.59025800
2.31423200 2.01879900 -1.59025800
2.33471200 2.91604400 -1.59025800
2.35519200 3.36466600 -1.57261900
2.37567200 2.46742200 -1.59025800
2.39615200 2.91604400 -1.59025800
2.41663200 2.46742200 -1.59025800
2.43711200 2.46742200 -1.59025800
2.45759200 1.57017700 -1.60795900
2.47807200 2.46742200 1.51658700
2.49855200 3.36466600 1.62254700
2.51903200 2.91604400 1.58720700
2.53951200 3.36466600 1.62254700
2.55999200 2.46742200 1.58720700
2.58047200 17.72363000 1.58720700
2.60095200 16.82638000 1.58720700
2.62143200 15.92914000 1.58720700
2.64191200 14.13465000 1.58720700
2.66239200 14.13465000 1.60484600
2.68287200 13.68450000 1.62254700
2.70335200 12.33863000 1.58720700
2.72383200 11.89001000 1.62254700
2.74431200 10.54414000 1.58720700
2.76479200 10.09552000 1.58720700
2.78527200 8.74965700 1.58720700
2.80575200 8.74965700 1.58720700
2.82623200 8.30103400 1.62254700
2.84671200 7.85088700 1.62254700
2.86719200 8.30103400 1.62254700
2.88767200 6.95364200 1.60484600
2.90815200 6.95364200 1.62254700
2.92863200 6.50502000 1.60484600
2.94911200 6.05639800 1.58720700
2.96959200 5.15915400 1.58720700
2.99007200 5.60777600 1.60484600
3.01055200 5.15915400 1.64018700
3.03103200 5.15915400 1.58720700
3.05151200 5.60777600 1.62254700
3.07199200 4.71053200 1.58720700
3.09247200 4.26191000 1.58720700
3.11295200 3.36466600 1.56956700
3.13343200 4.26191000 1.58720700
3.15391200 3.36466600 1.58720700
3.17439200 3.81328800 1.60484600
3.19487200 4.26191000 1.62254700
3.21535200 3.36466600 1.58720700
3.23583200 4.26191000 1.62254700
3.25631200 3.36466600 1.58720700
3.27679200 3.36466600 1.58720700
3.29727200 2.91604400 1.58720700
3.31775200 3.36466600 1.60484600
3.33823200 3.36466600 1.62254700
3.35871200 3.36466600 1.60484600
3.37919200 3.81328800 1.62254700
3.39967200 3.36466600 1.60484600
3.42015200 3.36466600 1.58720700
3.44063200 2.91604400 1.58720700
3.46111200 2.91604400 1.58720700
3.48159200 2.46742200 1.58720700
3.50207200 2.91604400 1.58720700
3.52255200 3.36466600 1.62254700
3.54303200 2.91604400 1.58720700
3.56351200 3.36466600 1.60484600
3.58399200 2.91604400 1.58720700
3.60447200 2.91604400 1.58720700
3.62495200 1.57017700 1.55192700
3.64543200 2.46742200 1.58720700
3.66591200 2.01879900 1.58720700
3.68639200 2.91604400 1.58720700
3.70687200 3.36466600 1.62254700
3.72735200 2.46742200 -1.59025800
3.74783200 2.91604400 -1.59025800
3.76831200 2.91604400 -1.60795900
3.78879200 2.46742200 -1.60795900
3.80927200 1.57017700 -1.62559900
3.82975200 2.46742200 -1.60795900
3.85023200 2.91604400 -1.57261900
3.87071200 2.46742200 -1.59025800
3.89119200 3.36466600 -1.59025800
3.91167200 2.91604400 -1.59025800
3.93215200 2.91604400 -1.60795900
3.95263200 1.57017700 -1.60795900
3.97311200 2.46742200 -1.60795900
3.99359200 1.57017700 -1.60795900
4.01407200 2.46742200 -1.60795900
4.03455200 2.91604400 -1.59025800
4.05503200 2.46742200 -1.60795900
4.07551200 3.36466600 -1.59025800
4.09599200 2.46742200 -1.60795900
4.11647200 2.46742200 -1.60795900
4.13695200 1.57017700 -1.62559900
4.15743300 2.46742200 -1.59025800
4.17791200 2.46742200 -1.59025800
4.19839200 2.46742200 -1.60795900
4.21887200 3.36466600 -1.57261900
4.23935200 2.46742200 -1.60795900
4.25983200 2.91604400 -1.60795900
4.28031200 2.46742200 -1.59025800
4.30079200 2.46742200 -1.60795900
4.32127200 1.57017700 -1.60795900
4.34175200 2.46742200 -1.59025800
4.36223200 2.91604400 -1.55497900
4.38271200 2.46742200 -1.59025800
4.40319200 3.36466600 -1.57261900
4.42367200 2.46742200 -1.59025800
4.44415200 2.46742200 -1.60795900
4.46463200 1.57017700 -1.62559900
4.48511200 2.46742200 -1.60795900
4.50559200 1.57017700 -1.60795900
4.52607200 2.46742200 -1.59025800
4.54655200 2.91604400 -1.57261900
4.56703200 2.46742200 -1.59025800
4.58751200 2.91604400 -1.59025800
4.60799200 2.46742200 -1.59025800
4.62847200 2.46742200 -1.60795900
4.64895200 1.57017700 -1.60795900
4.66943200 2.46742200 -1.59025800
4.68991200 2.91604400 -1.55497900
4.71039200 2.46742200 -1.59025800
4.73087200 2.91604400 -1.57261900
4.75135200 2.91604400 -1.59025800
4.77183200 2.91604400 -1.59025800
4.79231200 2.46742200 -1.59025800
4.81279200 2.46742200 -1.60795900
4.83327200 1.57017700 -1.60795900
4.85375200 2.46742200 -1.59025800
4.87423200 2.91604400 -1.55497900
4.89471200 2.46742200 -1.59025800
4.91519200 2.91604400 -1.57261900
4.93567200 2.46742200 -1.59025800
4.95615200 2.46742200 1.56956700
4.97663200 1.57017700 1.55192700
4.99711200 2.46742200 1.58720700
5.01759200 2.01879900 1.58720700
5.03807300 18.17225000 1.58720700
5.05855200 18.62087000 1.62254700
5.07903200 16.82638000 1.60484600
5.09951200 15.92914000 1.62254700
5.11999200 14.58327000 1.60484600
5.14047200 13.68450000 1.58720700
5.16095200 11.89001000 1.58720700
5.18143200 11.89001000 1.58720700
5.20191200 11.44139000 1.64018700
5.22239200 10.54414000 1.58720700
5.24287200 10.54414000 1.62254700
5.26335200 9.19827800 1.62254700
5.28383200 8.74965700 1.58720700
5.30431200 6.95364200 1.58720700
5.32479200 7.85088700 1.58720700
5.34527200 6.95364200 1.58720700
5.36575200 6.95364200 1.60484600
5.38623200 6.95364200 1.62254700
5.40671200 6.50502000 1.62254700
5.42719200 6.50502000 1.62254700
5.44767200 5.60777600 1.58720700
5.46815200 5.15915400 1.58720700
5.48863200 4.26191000 1.58720700
5.50911200 5.15915400 1.58720700
5.52959300 4.71053200 1.62254700
5.55007200 4.26191000 1.58720700
5.57055200 5.15915400 1.62254700
5.59103200 4.26191000 1.60484600
5.61151200 4.26191000 1.58720700
5.63199200 3.81328800 1.60484600
5.65247200 3.81328800 1.58720700
5.67295200 2.91604400 1.58720700
5.69343200 3.36466600 1.58720700
5.71391200 3.81328800 1.62254700
5.73439200 3.36466600 1.58720700
5.75487200 3.81328800 1.62254700
5.77535200 3.36466600 1.58720700
5.79583200 3.36466600 1.58720700
5.81631200 2.91604400 1.56956700
5.83679200 3.36466600 1.58720700
5.85727200 2.46742200 1.58720700
5.87775200 3.36466600 1.58720700
5.89823200 3.36466600 1.62254700
5.91871200 3.36466600 1.58720700
5.93919200 3.36466600 1.60484600
5.95967200 2.91604400 1.58720700
5.98015200 2.91604400 1.58720700
6.00063200 2.46742200 1.58720700
6.02111200 2.91604400 1.58720700
6.04159200 2.91604400 1.62254700
6.06207200 2.91604400 1.60484600
6.08255200 3.36466600 1.62254700
6.10303200 2.46742200 1.58720700
6.12351200 2.91604400 1.58720700
6.14399200 2.46742200 1.58720700
6.16447200 2.46742200 1.58720700
6.18495200 1.57017700 -1.59025800
6.20543200 2.46742200 -1.60795900
6.22591200 2.91604400 -1.57261900
6.24639200 2.91604400 -1.60795900
6.26687200 3.36466600 -1.59025800
6.28735200 2.46742200 -1.60795900
6.30783200 2.46742200 -1.62559900
6.32831200 1.57017700 -1.62559900
6.34879200 2.46742200 -1.60795900
6.36927200 1.57017700 -1.60795900
6.38975200 2.46742200 -1.60795900
6.41023200 2.91604400 -1.57261900
6.43071200 2.46742200 -1.60795900
6.45119200 2.91604400 -1.59025800
6.47167200 2.91604400 -1.60795900
6.49215200 2.46742200 -1.60795900
6.51263200 1.57017700 -1.62559900
6.53311200 2.91604400 -1.60795900
6.55359200 2.91604400 -1.55497900
6.57407200 2.46742200 -1.60795900
6.59455200 3.36466600 -1.59025800
6.61503200 2.46742200 -1.60795900
6.63551200 2.46742200 -1.60795900
6.65599200 2.46742200 -1.60795900
6.67647200 2.46742200 -1.60795900
6.69695200 1.57017700 -1.60795900
6.71743200 2.46742200 -1.59025800
6.73791200 2.91604400 -1.57261900
6.75839200 2.46742200 -1.60795900
6.77887200 3.36466600 -1.59025800
6.79935200 2.46742200 -1.59025800
6.81983200 2.46742200 -1.60795900
6.84031200 1.57017700 -1.62559900
6.86079200 2.46742200 -1.59025800
6.88127200 2.46742200 -1.59025800
6.90175200 2.46742200 -1.59025800
6.92223200 3.36466600 -1.57261900
6.94271200 2.46742200 -1.59025800
6.96319200 2.91604400 -1.59025800
6.98367200 2.46742200 -1.59025800
7.00415200 2.46742200 -1.60795900
7.02463200 1.57017700 -1.60795900
7.04511200 2.46742200 -1.59025800
7.06559200 2.91604400 -1.55497900
7.08607200 2.46742200 -1.59025800
7.10655200 2.91604400 -1.57261900
7.12703200 2.46742200 -1.59025800
7.14751200 2.46742200 -1.60795900
7.16799200 1.57017700 -1.62559900
7.18847200 2.46742200 -1.59025800
7.20895200 1.57017700 -1.60795900
7.22943200 2.46742200 -1.59025800
7.24991200 2.91604400 -1.55497900
7.27039200 2.46742200 -1.57261900
7.29087200 3.36466600 -1.57261900
7.31135200 2.46742200 -1.59025800
7.33183200 2.46742200 -1.60795900
7.35231200 1.57017700 -1.59025800
7.37279200 2.46742200 -1.59025800
7.39327200 2.91604400 -1.55497900
7.41375200 2.91604400 1.55192700
7.43423200 3.36466600 1.62254700
7.45471200 2.91604400 1.58720700
7.47519200 2.91604400 1.58720700
7.49567200 2.91604400 1.58720700
7.51615200 9.19827800 1.58720700
7.53663200 8.30103400 1.58720700
7.55711200 8.30103400 1.58720700
7.57759200 8.74965700 1.62254700
7.59807200 7.40226500 1.60484600
7.61855200 7.85088700 1.62254700
7.63903200 6.95364200 1.62254700
7.65951200 6.50502000 1.58720700
7.67999200 5.15915400 1.56956700
7.70047200 5.60777600 1.58720700
7.72095200 4.71053200 1.60484600
7.74143200 5.15915400 1.60484600
7.76191200 5.60777600 1.62254700
7.78239200 4.71053200 1.58720700
7.80287200 5.15915400 1.62254700
7.82335200 4.26191000 1.58720700
7.84383200 4.26191000 1.58720700
7.86431200 3.36466600 1.58720700
7.88479200 4.26191000 1.58720700
7.90527200 4.26191000 1.62254700
7.92575300 3.81328800 1.58720700
7.94623200 4.26191000 1.62254700
7.96671200 3.36466600 1.58720700
7.98719200 3.36466600 1.58720700
8.00767100 3.36466600 1.58720700
8.02815200 3.36466600 1.58720700
8.04863300 2.91604400 1.58720700
8.06911200 3.36466600 1.58720700
8.08959200 3.36466600 1.62254700
8.11007200 3.36466600 1.60484600
8.13055200 3.81328800 1.62254700
8.15103200 3.36466600 1.58720700
8.17151200 2.91604400 1.58720700
8.19199300 2.46742200 1.56956700
8.21247200 2.91604400 1.58720700
8.23295200 2.91604400 1.60484600
8.25343200 2.91604400 1.58720700
8.27391100 3.36466600 1.62254700
8.29439300 2.91604400 1.58720700
8.31487200 3.36466600 1.58720700
8.33535200 2.91604400 1.58720700
8.35583200 2.91604400 1.58720700
8.37631200 2.01879900 1.58720700
8.39679200 2.91604400 1.58720700
8.41727200 3.36466600 1.62254700
8.43775200 2.91604400 1.58720700
8.45823300 3.36466600 1.62254700
8.47871200 2.91604400 1.60484600
8.49919200 2.91604400 1.58720700
8.51967100 2.46742200 1.56956700
8.54015200 2.46742200 1.58720700
8.56063300 2.01879900 1.58720700
8.58111200 2.91604400 1.58720700
8.60159200 3.36466600 1.62254700
8.62207100 2.91604400 1.58720700
8.64255200 3.36466600 1.58720700
8.66303300 2.91604400 -1.59025800
8.68351200 2.46742200 -1.60795900
8.70399200 1.57017700 -1.60795900
8.72447200 2.46742200 -1.60795900
8.74495200 2.91604400 -1.57261900
8.76543200 2.91604400 -1.60795900
8.78591200 3.36466600 -1.59025800
8.80639300 2.46742200 -1.60795900
8.82687200 2.91604400 -1.60795900
8.84735200 2.46742200 -1.60795900
8.86783200 2.46742200 -1.62559900
8.88831100 1.57017700 -1.60795900
8.90879200 2.91604400 -1.60795900
8.92927300 2.91604400 -1.57261900
8.94975200 2.46742200 -1.60795900
8.97023200 3.36466600 -1.59025800
8.99071200 2.91604400 -1.60795900
9.01119200 2.46742200 -1.60795900
9.03167200 1.57017700 -1.62559900
9.05215200 2.46742200 -1.60795900
9.07263300 2.01879900 -1.60795900
9.09311200 2.91604400 -1.59025800
9.11359200 3.36466600 -1.57261900
9.13407200 2.46742200 -1.59025800
9.15455200 3.36466600 -1.59025800
9.17503300 2.46742200 -1.59025800
9.19551200 2.46742200 -1.60795900
9.21599200 1.57017700 -1.60795900
9.23647200 2.46742200 -1.59025800
9.25695200 2.91604400 -1.55497900
9.27743200 2.91604400 -1.59025800
9.29791200 3.36466600 -1.57261900
9.31839200 2.46742200 -1.59025800
9.33887300 2.91604400 -1.60795900
9.35935200 2.91604400 -1.59025800
9.37983200 2.46742200 -1.60795900
9.40031100 2.01879900 -1.59025800
9.42079200 2.91604400 -1.59025800
9.44127300 2.91604400 -1.57261900
9.46175200 2.46742200 -1.60795900
9.48223200 3.36466600 -1.57261900
9.50271100 2.46742200 -1.59025800
9.52319200 2.46742200 -1.60795900
9.54367300 1.57017700 -1.62559900
9.56415200 2.91604400 -1.59025800
9.58463200 2.46742200 -1.59025800
9.60511200 2.91604400 -1.59025800
9.62559200 3.36466600 -1.55497900
9.64607200 2.91604400 -1.59025800
9.66655200 2.91604400 -1.59025800
9.68703300 2.91604400 -1.59025800
9.70751200 2.46742200 -1.59025800
9.72799200 1.57017700 -1.60795900
9.74847200 2.91604400 -1.59025800
9.76895100 3.36466600 -1.55497900
9.78943300 2.46742200 -1.59025800
9.80991200 3.36466600 -1.57261900
9.83039200 2.91604400 -1.59025800
9.85087200 2.91604400 -1.60795900
9.87135200 1.57017700 -1.60795900
9.89183200 2.46742200 1.58720700
9.91231200 2.01879900 1.58720700
9.93279200 2.91604400 1.58720700
9.95327300 3.36466600 1.62254700
9.97375200 10.54414000 1.60484600
9.99423200 10.54414000 1.62254700
10.01471000 9.64690000 1.58720700
10.03519000 8.74965700 1.58720700
10.05567000 7.85088700 1.58720700
10.07615000 8.30103400 1.58720700
10.09663000 7.40226500 1.62254700
10.11711000 6.95364200 1.60484600
10.13759000 7.40226500 1.62254700
10.15807000 6.50502000 1.60484600
10.17855000 6.95364200 1.60484600
10.19903000 6.05639800 1.62254700
10.21951000 5.15915400 1.58720700
10.23999000 4.71053200 1.58720700
10.26047000 5.15915400 1.58720700
10.28095000 5.15915400 1.64018700
10.30143000 4.71053200 1.58720700
10.32191000 5.15915400 1.62254700
10.34239000 4.26191000 1.60484600
10.36287000 4.26191000 1.58720700
10.38335000 3.36466600 1.56956700
10.40383000 4.26191000 1.58720700
10.42431000 3.36466600 1.58720700
10.44479000 3.81328800 1.58720700
10.46527000 4.26191000 1.62254700
10.48575000 3.81328800 1.62254700
10.50623000 4.26191000 1.60484600
10.52671000 3.36466600 1.60484600
10.54719000 3.36466600 1.58720700
10.56767000 2.91604400 1.58720700
10.58815000 3.36466600 1.58720700
10.60863000 3.81328800 1.64018700
10.62911000 3.36466600 1.58720700
10.64959000 3.36466600 1.62254700
10.67007000 3.36466600 1.58720700
10.69055000 3.36466600 1.58720700
10.71103000 3.36466600 1.58720700
10.73151000 2.91604400 1.58720700
10.75199000 2.46742200 1.58720700
10.77247000 2.91604400 1.58720700
10.79295000 3.36466600 1.62254700
10.81343000 2.91604400 1.60484600
10.83391000 3.36466600 1.62254700
10.85439000 2.91604400 1.58720700
10.87487000 2.91604400 1.58720700
10.89535000 2.01879900 1.56956700
10.91583000 2.91604400 1.58720700
10.93631000 2.46742200 1.60484600
10.95679000 2.91604400 1.58720700
10.97727000 3.36466600 1.62254700
10.99775000 2.91604400 1.58720700
11.01823000 3.36466600 1.58720700
11.03871000 2.91604400 1.58720700
11.05919000 2.91604400 1.58720700
11.07967000 2.01879900 1.56956700
11.10015000 2.91604400 1.58720700
11.12063000 2.91604400 -1.55497900
11.14111000 2.46742200 -1.60795900
11.16159000 3.36466600 -1.59025800
11.18207000 2.46742200 -1.59025800
11.20255000 2.46742200 -1.62559900
11.22303000 2.46742200 -1.60795900
11.24351000 2.46742200 -1.60795900
11.26399000 2.01879900 -1.60795900
11.28447000 2.91604400 -1.60795900
11.30495000 3.36466600 -1.59025800
11.32543000 2.91604400 -1.60795900
11.34591000 3.36466600 -1.59025800
11.36639000 2.91604400 -1.60795900
11.38687000 2.46742200 -1.60795900
11.40735000 2.01879900 -1.60795900
11.42783000 2.91604400 -1.59025800
11.44831000 2.91604400 -1.57261900
11.46879000 2.91604400 -1.59025800
11.48927000 3.36466600 -1.57261900
11.50975000 2.91604400 -1.60795900
11.53023000 3.36466600 -1.60795900
11.55071000 2.46742200 -1.60795900
11.57119000 2.46742200 -1.60795900
11.59167000 1.57017700 -1.60795900
11.61215000 2.91604400 -1.59025800
11.63263000 3.36466600 -1.57261900
11.65311000 2.46742200 -1.59025800
11.67359000 3.36466600 -1.59025800
11.69407000 2.46742200 -1.59025800
11.71455000 2.91604400 -1.60795900
11.73503000 1.57017700 -1.62559900
11.75551000 2.91604400 -1.60795900
11.77599000 2.01879900 -1.59025800
11.79647000 2.91604400 -1.59025800
11.81695000 3.36466600 -1.57261900
11.83743000 2.91604400 -1.59025800
11.85791000 3.36466600 -1.59025800
11.87839000 2.91604400 -1.59025800
11.89887000 2.91604400 -1.60795900
11.91935000 2.01879900 -1.60795900
11.93983000 2.91604400 -1.59025800
11.96031000 3.36466600 -1.55497900
11.98079000 2.91604400 -1.59025800
12.00127000 3.36466600 -1.59025800
12.02175000 2.91604400 -1.59025800
12.04223000 2.91604400 -1.60795900
12.06271000 2.91604400 -1.59025800
12.08319000 2.91604400 -1.59025800
12.10367000 2.01879900 -1.60795900
12.12415000 2.91604400 -1.59025800
12.14463000 2.91604400 -1.57261900
12.16511000 2.91604400 -1.59025800
12.18559000 3.36466600 -1.57261900
12.20607000 2.91604400 -1.59025800
12.22655000 2.91604400 -1.60795900
12.24703000 1.57017700 -1.62559900
12.26751000 2.91604400 -1.59025800
12.28799000 2.46742200 -1.59025800
12.30847000 2.91604400 -1.59025800
12.32895000 3.36466600 -1.55497900
12.34943000 2.91604400 1.56956700
12.36991000 3.36466600 1.58720700
12.39039000 2.91604400 1.58720700
12.41087000 2.91604400 1.58720700
12.43135000 2.91604400 1.56956700
12.45183000 4.71053200 1.58720700
12.47231000 5.15915400 1.64018700
12.49279000 4.71053200 1.62254700
12.51327000 4.71053200 1.62254700
12.53375000 4.26191000 1.58720700
12.55423000 4.26191000 1.60484600
12.57471000 4.26191000 1.58720700
12.59519000 3.36466600 1.58720700
12.61567000 2.91604400 1.58720700
12.63615000 3.81328800 1.62254700
12.65663000 3.81328800 1.62254700
12.67711000 3.36466600 1.60484600
12.69759000 4.26191000 1.62254700
12.71807000 3.36466600 1.60484600
12.73855000 3.36466600 1.58720700
12.75903000 2.91604400 1.58720700
12.77951000 3.36466600 1.58720700
12.79999000 2.91604400 1.62254700
12.82047000 3.36466600 1.60484600
12.84095000 4.26191000 1.62254700
12.86143000 3.36466600 1.58720700
12.88191000 3.36466600 1.58720700
12.90239000 3.36466600 1.58720700
12.92287000 2.91604400 1.58720700
12.94335000 2.46742200 1.58720700
12.96383000 2.91604400 1.58720700
12.98431000 3.36466600 1.64018700
13.00479000 2.91604400 1.60484600
13.02527000 3.36466600 1.62254700
13.04575000 2.91604400 1.62254700
13.06623000 2.91604400 1.58720700
13.08671000 2.01879900 1.56956700
13.10719000 2.91604400 1.60484600
13.12767000 2.01879900 1.58720700
13.14815000 2.91604400 1.60484600
13.16863000 3.36466600 1.62254700
13.18911000 2.91604400 1.58720700
13.20959000 3.36466600 1.62254700
13.23007000 2.91604400 1.58720700
13.25055000 2.91604400 1.58720700
13.27103000 2.01879900 1.58720700
13.29151000 2.91604400 1.58720700
13.31199000 3.36466600 1.62254700
13.33247000 2.91604400 1.60484600
13.35295000 3.36466600 1.62254700
13.37343000 2.91604400 1.58720700
13.39391000 2.91604400 1.58720700
13.41439000 2.91604400 1.62254700
13.43487000 2.91604400 1.58720700
13.45535000 2.01879900 1.58720700
13.47583000 2.91604400 1.58720700
13.49631000 3.36466600 1.62254700
13.51679000 2.91604400 1.58720700
13.53727000 3.36466600 1.62254700
13.55775000 2.91604400 1.58720700
13.57823000 2.91604400 -1.57261900
13.59871000 1.57017700 -1.62559900
13.61919000 2.46742200 -1.60795900
13.63967000 2.01879900 -1.60795900
13.66015000 2.91604400 -1.60795900
13.68063000 3.36466600 -1.59025800
13.70111000 2.46742200 -1.59025800
13.72159000 3.36466600 -1.60795900
13.74207000 2.91604400 -1.60795900
13.76255000 2.46742200 -1.60795900
13.78303000 1.57017700 -1.60795900
13.80351000 2.91604400 -1.60795900
13.82399000 3.36466600 -1.57261900
13.84447000 2.91604400 -1.60795900
13.86495000 3.36466600 -1.59025800
13.88543000 2.91604400 -1.59025800
13.90591000 2.91604400 -1.60795900
13.92639000 2.46742200 -1.62559900
13.94687000 2.91604400 -1.60795900
13.96735000 1.57017700 -1.60795900
13.98783000 2.91604400 -1.60795900
14.00831000 3.36466600 -1.57261900
14.02879000 2.91604400 -1.59025800
14.04927000 3.36466600 -1.59025800
14.06975000 2.91604400 -1.60795900
14.09023000 2.91604400 -1.60795900
14.11071000 2.01879900 -1.60795900
14.13119000 2.91604400 -1.59025800
14.15167000 2.46742200 -1.59025800
14.17215000 2.91604400 -1.59025800
14.19263000 3.36466600 -1.57261900
14.21311000 2.91604400 -1.59025800
14.23359000 3.36466600 -1.59025800
14.25407000 2.91604400 -1.60795900
14.27455000 2.91604400 -1.60795900
14.29503000 2.01879900 -1.60795900
14.31551000 2.91604400 -1.59025800
14.33599000 3.36466600 -1.55497900
14.35647000 2.91604400 -1.59025800
14.37695000 3.36466600 -1.59025800
14.39743000 2.91604400 -1.59025800
14.41791000 2.91604400 -1.60795900
14.43839000 2.01879900 -1.62559900
14.45887000 2.91604400 -1.59025800
14.47935000 2.01879900 -1.59025800
14.49983000 2.91604400 -1.59025800
14.52031000 3.36466600 -1.55497900
14.54079000 2.91604400 -1.59025800
14.56127000 3.36466600 -1.57261900
14.58175000 2.91604400 -1.59025800
14.60223000 2.91604400 -1.59025800
14.62271000 2.46742200 -1.59025800
14.64319000 2.91604400 -1.59025800
14.66367000 3.36466600 -1.55497900
14.68415000 2.91604400 -1.59025800
14.70463000 3.36466600 -1.55497900
14.72511000 2.91604400 -1.59025800
14.74559000 3.36466600 -1.59025800
14.76607000 2.91604400 -1.59025800
14.78655000 2.91604400 -1.59025800
14.80703000 2.01879900 -1.59025800
14.82751000 2.91604400 1.58720700
14.84799000 3.36466600 1.62254700
14.86847000 2.91604400 1.58720700
14.88895000 3.36466600 1.62254700
14.90943000 10.99277000 1.60484600
14.92991000 10.54414000 1.58720700
14.95039000 8.74965700 1.55192700
14.97087000 9.64690000 1.58720700
14.99135000 8.30103400 1.58720700
15.01183000 8.74965700 1.58720700
15.03231000 8.74965700 1.64018700
15.05279000 7.85088700 1.62254700
15.07327000 7.85088700 1.62254700
15.09375000 6.95364200 1.62254700
15.11423000 6.50502000 1.58720700
15.13471000 5.60777600 1.58720700
15.15519000 6.05639800 1.62254700
15.17567000 6.05639800 1.64018700
15.19615000 5.60777600 1.60484600
15.21663000 6.05639800 1.62254700
15.23711000 5.15915400 1.60484600
15.25759000 5.15915400 1.58720700
15.27807000 4.71053200 1.58720700
15.29855000 4.71053200 1.58720700
15.31903000 3.36466600 1.58720700
15.33951000 4.26191000 1.60484600
15.35999000 4.71053200 1.62254700
15.38047000 4.26191000 1.60484600
15.40095000 4.71053200 1.62254700
15.42143000 3.36466600 1.60484600
15.44191000 3.81328800 1.58720700
15.46239000 2.91604400 1.56956700
15.48287000 3.36466600 1.58720700
15.50335000 3.36466600 1.62254700
15.52383000 3.36466600 1.58720700
15.54431000 4.26191000 1.62254700
15.56479000 3.36466600 1.62254700
15.58527000 3.81328800 1.60484600
15.60575000 3.36466600 1.58720700
15.62623000 3.36466600 1.58720700
15.64671000 2.46742200 1.58720700
15.66719000 3.36466600 1.58720700
15.68767000 3.36466600 1.62254700
15.70815000 3.36466600 1.58720700
15.72863000 3.36466600 1.62254700
15.74911000 3.36466600 1.58720700
15.76959000 3.36466600 1.58720700
15.79007000 2.01879900 1.58720700
15.81055000 2.91604400 1.58720700
15.83103000 2.46742200 1.58720700
15.85151000 2.91604400 1.58720700
15.87199000 3.36466600 1.62254700
15.89247000 2.91604400 1.58720700
15.91295000 3.36466600 1.60484600
15.93343000 2.91604400 1.58720700
15.95391000 2.91604400 1.58720700
15.97439000 2.46742200 1.58720700
15.99487000 2.91604400 1.58720700
16.01535000 3.36466600 1.62254700
16.03583000 2.91604400 1.58720700
16.05631000 3.36466600 -1.57261900
16.07679000 2.91604400 -1.60795900
16.09727000 2.91604400 -1.60795900
16.11775000 2.91604400 -1.59025800
16.13823000 2.91604400 -1.60795900
16.15871000 2.01879900 -1.60795900
16.17919000 2.91604400 -1.60795900
16.19967000 3.36466600 -1.57261900
16.22015000 2.91604400 -1.59025800
16.24063000 3.36466600 -1.59025800
16.26111000 2.91604400 -1.60795900
16.28159000 2.91604400 -1.62559900
16.30207000 2.01879900 -1.64323900
16.32255000 2.91604400 -1.60795900
16.34303000 2.01879900 -1.60795900
16.36351000 2.91604400 -1.59025800
16.38399000 3.36466600 -1.57261900
16.40447000 2.91604400 -1.60795900
16.42495000 3.36466600 -1.59025800
16.44543000 2.91604400 -1.59025800
16.46591000 2.91604400 -1.60795900
16.48639000 2.01879900 -1.62559900
16.50687000 2.91604400 -1.60795900
16.52735000 3.36466600 -1.55497900
16.54783000 2.91604400 -1.59025800
16.56831000 3.36466600 -1.59025800
16.58879000 2.46742200 -1.59025800
16.60927000 2.91604400 -1.60795900
16.62975000 2.91604400 -1.60795900
16.65023000 2.91604400 -1.60795900
16.67071000 2.01879900 -1.60795900
16.69119000 2.91604400 -1.60795900
16.71167000 2.91604400 -1.57261900
16.73215000 2.91604400 -1.59025800
16.75263000 3.36466600 -1.59025800
16.77311000 2.91604400 -1.59025800
16.79359000 2.91604400 -1.60795900
16.81407000 1.57017700 -1.62559900
16.83455000 2.91604400 -1.60795900
16.85503000 2.46742200 -1.59025800
16.87551000 2.91604400 -1.59025800
16.89599000 3.36466600 -1.55497900
16.91647000 2.91604400 -1.59025800
16.93695000 3.36466600 -1.59025800
16.95743000 2.91604400 -1.60795900
16.97791000 2.91604400 -1.60795900
16.99839000 2.01879900 -1.60795900
17.01887000 2.91604400 -1.59025800
17.03935000 3.36466600 -1.55497900
17.05983000 2.91604400 -1.59025800
17.08031000 3.36466600 -1.57261900
17.10079000 2.91604400 -1.59025800
17.12127000 2.91604400 -1.59025800
17.14175000 1.57017700 -1.59025800
17.16223000 2.91604400 -1.59025800
17.18271000 1.57017700 -1.59025800
17.20319000 2.91604400 -1.59025800
17.22367000 3.36466600 -1.55497900
17.24415000 2.91604400 -1.59025800
17.26463000 3.36466600 -1.57261900
17.28511000 2.91604400 1.58720700
17.30559000 2.91604400 1.58720700
17.32607000 2.46742200 1.58720700
17.34655000 2.91604400 1.58720700
17.36703000 7.85088700 1.60484600
17.38751000 8.30103400 1.60484600
17.40799000 8.30103400 1.62254700
17.42847000 7.40226500 1.60484600
17.44895000 7.85088700 1.62254700
17.46943000 6.50502000 1.58720700
17.48991000 6.50502000 1.58720700
17.51039000 5.15915400 1.58720700
17.53087000 6.05639800 1.60484600
17.55135000 6.05639800 1.64018700
17.57183000 5.15915400 1.60484600
17.59231000 6.05639800 1.62254700
17.61279000 4.71053200 1.62254700
17.63327000 4.71053200 1.58720700
17.65375000 3.36466600 1.56956700
17.67423000 4.26191000 1.58720700
17.69471000 3.36466600 1.58720700
17.71519000 4.26191000 1.60484600
17.73567000 4.71053200 1.62254700
17.75615000 3.81328800 1.60484600
17.77663000 4.71053200 1.62254700
17.79711000 3.36466600 1.58720700
17.81759000 3.36466600 1.58720700
17.83807000 2.91604400 1.58720700
17.85855000 3.36466600 1.62254700
17.87903000 3.81328800 1.64018700
17.89951000 3.36466600 1.58720700
17.91999000 3.81328800 1.62254700
17.94047000 3.36466600 1.58720700
17.96095000 3.36466600 1.58720700
17.98143000 3.36466600 1.60484600
18.00191000 3.36466600 1.58720700
18.02239000 2.46742200 1.58720700
18.04287000 2.91604400 1.62254700
18.06335000 3.36466600 1.62254700
18.08383000 2.91604400 1.58720700
18.10431000 3.36466600 1.62254700
18.12479000 2.91604400 1.58720700
18.14527000 2.91604400 1.58720700
18.16575000 1.57017700 1.56956700
18.18623000 2.91604400 1.58720700
18.20671000 2.46742200 1.58720700
18.22719000 2.91604400 1.60484600
18.24767000 3.36466600 1.62254700
18.26815000 2.91604400 1.58720700
18.28863000 3.36466600 1.58720700
18.30911000 2.91604400 1.58720700
18.32959000 2.91604400 1.58720700
18.35007000 1.57017700 1.58720700
18.37055000 2.91604400 1.58720700
18.39103000 3.36466600 1.62254700
18.41151000 2.91604400 1.58720700
18.43199000 3.36466600 1.62254700
18.45247000 2.91604400 1.58720700
18.47295000 2.91604400 1.58720700
18.49343000 2.91604400 1.58720700
18.51391000 2.46742200 -1.60795900
18.53439000 1.57017700 -1.60795900
18.55487000 2.46742200 -1.60795900
18.57535000 2.91604400 -1.59025800
18.59583000 2.46742200 -1.60795900
18.61631000 3.36466600 -1.59025800
18.63679000 2.91604400 -1.60795900
18.65727000 2.46742200 -1.60795900
18.67775000 1.57017700 -1.60795900
18.69823000 2.46742200 -1.59025800
18.71871000 2.91604400 -1.59025800
18.73919000 2.46742200 -1.60795900
18.75967000 3.36466600 -1.57261900
18.78015000 2.91604400 -1.60795900
18.80063000 2.91604400 -1.60795900
18.82111000 2.91604400 -1.60795900
18.84159000 2.46742200 -1.62559900
18.86207000 2.01879900 -1.60795900
18.88255000 2.91604400 -1.59025800
18.90303000 3.36466600 -1.55497900
18.92351000 2.91604400 -1.60795900
18.94399000 3.36466600 -1.59025800
18.96447000 2.91604400 -1.60795900
18.98495000 2.46742200 -1.60795900
19.00543000 2.46742200 -1.62559900
19.02591000 2.46742200 -1.60795900
19.04639000 2.01879900 -1.60795900
19.06687000 2.46742200 -1.59025800
19.08735000 2.91604400 -1.57261900
19.10783000 2.91604400 -1.59025800
19.12831000 3.36466600 -1.59025800
19.14879000 2.91604400 -1.59025800
19.16927000 2.46742200 -1.60795900
19.18975000 1.57017700 -1.60795900
19.21023000 2.46742200 -1.59025800
19.23071000 2.91604400 -1.55497900
19.25119000 2.91604400 -1.59025800
19.27167000 3.36466600 -1.57261900
19.29215000 2.91604400 -1.59025800
19.31263000 2.91604400 -1.59025800
19.33311000 2.91604400 -1.59025800
19.35359000 2.46742200 -1.60795900
19.37407000 1.57017700 -1.60795900
19.39455000 2.91604400 -1.59025800
19.41503000 2.91604400 -1.57261900
19.43551000 2.91604400 -1.59025800
19.45599000 3.36466600 -1.57261900
19.47647000 2.91604400 -1.59025800
19.49695000 2.46742200 -1.60795900
19.51743000 1.57017700 -1.62559900
19.53791000 2.91604400 -1.59025800
19.55839000 2.01879900 -1.59025800
19.57887000 2.91604400 -1.59025800
19.59935000 3.36466600 -1.55497900
19.61983000 2.46742200 -1.57261900
19.64031000 2.91604400 -1.59025800
19.66079000 2.91604400 -1.59025800
19.68127000 2.46742200 -1.59025800
19.70175000 1.57017700 -1.60795900
19.72223000 2.46742200 -1.59025800
19.74271000 3.36466600 1.58720700
19.76319000 2.91604400 1.58720700
19.78367000 2.91604400 1.62254700
19.80415000 2.91604400 1.58720700
19.82463000 2.91604400 1.58720700
19.84511000 19.06949000 1.58720700
19.86559000 16.37776000 1.58720700
19.88607000 15.03189000 1.58720700
19.90655000 14.58327000 1.60484600
19.92703000 14.13465000 1.62254700
19.94751000 12.33863000 1.58720700
19.96799000 12.33863000 1.62254700
19.98847000 10.99277000 1.60484600
20.00895000 10.54414000 1.58720700
20.02943000 9.19827800 1.56956700
20.04991000 8.74965700 1.58720700
20.07039000 8.30103400 1.58720700
20.09087000 8.30103400 1.62254700
20.11135000 8.30103400 1.62254700
20.13183000 6.95364200 1.58720700
20.15231000 7.40226500 1.58720700
20.17279000 6.50502000 1.62254700
20.19327000 6.50502000 1.58720700
20.21375000 5.15915400 1.58720700
20.23423000 5.60777600 1.62254700
20.25471000 6.05639800 1.64018700
20.27519000 5.15915400 1.58720700
20.29567000 5.60777600 1.62254700
20.31615000 4.71053200 1.60484600
20.33663000 4.71053200 1.58720700
20.35711000 3.36466600 1.58720700
20.37759000 4.26191000 1.58720700
20.39807000 3.36466600 1.58720700
20.41855000 3.81328800 1.60484600
20.43903000 4.26191000 1.62254700
20.45951000 3.81328800 1.62254700
20.47999000 4.26191000 1.62254700
20.50047000 3.36466600 1.60484600
20.52095000 3.36466600 1.58720700
20.54143000 2.91604400 1.58720700
20.56191000 3.36466600 1.60484600
20.58239000 3.36466600 1.62254700
20.60287000 3.36466600 1.58720700
20.62335000 3.81328800 1.62254700
20.64383000 3.36466600 1.60484600
20.66431000 3.36466600 1.58720700
20.68479000 3.36466600 1.58720700
20.70527000 2.91604400 1.58720700
20.72575000 2.46742200 1.58720700
20.74623000 3.36466600 1.58720700
20.76671000 3.36466600 1.62254700
20.78719000 2.91604400 1.58720700
20.80767000 3.36466600 1.62254700
20.82815000 2.91604400 1.58720700
20.84863000 2.91604400 1.58720700
20.86911000 2.01879900 1.56956700
20.88959000 2.91604400 1.58720700
20.91007000 2.46742200 1.58720700
20.93055000 2.91604400 1.58720700
20.95103000 3.36466600 1.62254700
20.97151000 2.91604400 1.58720700
20.99199000 2.91604400 -1.59025800
21.01247000 2.91604400 -1.60795900
21.03295000 2.46742200 -1.60795900
21.05343000 1.57017700 -1.62559900
21.07391000 2.46742200 -1.60795900
21.09439000 3.36466600 -1.55497900
21.11487000 2.91604400 -1.60795900
21.13535000 3.36466600 -1.59025800
21.15583000 2.91604400 -1.60795900
21.17631000 2.91604400 -1.60795900
21.19679000 2.91604400 -1.60795900
21.21727000 2.46742200 -1.60795900
21.23775000 1.57017700 -1.60795900
21.25823000 2.46742200 -1.59025800
21.27871000 2.91604400 -1.59025800
21.29919000 2.46742200 -1.60795900
21.31967000 3.36466600 -1.59025800
21.34015000 2.91604400 -1.60795900
21.36063000 2.46742200 -1.60795900
21.38111000 1.57017700 -1.62559900
21.40159000 2.91604400 -1.60795900
21.42207000 2.46742200 -1.59025800
21.44255000 2.46742200 -1.59025800
21.46303000 3.36466600 -1.57261900
21.48351000 2.91604400 -1.59025800
21.50399000 2.91604400 -1.60795900
21.52447000 2.46742200 -1.59025800
21.54495000 2.46742200 -1.60795900
21.56543000 1.57017700 -1.60795900
21.58591000 2.46742200 -1.59025800
21.60639000 3.36466600 -1.55497900
21.62687000 2.91604400 -1.59025800
21.64735000 3.36466600 -1.59025800
21.66783000 2.91604400 -1.59025800
21.68831000 2.46742200 -1.60795900
21.70879000 2.46742200 -1.60795900
21.72927000 2.91604400 -1.59025800
21.74975000 1.57017700 -1.60795900
21.77023000 2.91604400 -1.59025800
21.79071000 2.91604400 -1.57261900
21.81119000 2.46742200 -1.59025800
21.83167000 3.36466600 -1.57261900
21.85215000 2.91604400 -1.59025800
21.87263000 2.46742200 -1.60795900
21.89311000 2.01879900 -1.60795900
21.91359000 2.91604400 -1.59025800
21.93407000 2.91604400 -1.55497900
21.95455000 2.91604400 -1.59025800
21.97503000 3.36466600 -1.55497900
21.99551000 2.46742200 -1.59025800
22.01599000 2.91604400 -1.59025800
22.03647000 2.91604400 -1.59025800
22.05695000 2.46742200 -1.59025800
22.07743000 1.57017700 -1.60795900
22.09791000 2.46742200 -1.59025800
22.11839000 2.91604400 -1.57261900
22.13887000 2.91604400 -1.59025800
22.15935000 3.36466600 -1.57261900
22.17983000 2.46742200 -1.59025800
22.20031000 2.46742200 -1.59025800
22.22079000 1.57017700 1.55192700
22.24127000 2.46742200 1.58720700
22.26175000 1.57017700 1.58720700
22.28223000 2.91604400 1.58720700
22.30271000 7.40226500 1.62254700
22.32319000 6.95364200 1.60484600
22.34367000 6.95364200 1.62254700
22.36415000 6.05639800 1.60484600
22.38463000 5.15915400 1.58720700
22.40511000 4.71053200 1.58720700
22.42559000 5.15915400 1.58720700
22.44607000 5.15915400 1.64018700
22.46655000 4.71053200 1.58720700
22.48703000 5.15915400 1.62254700
22.50751000 4.26191000 1.58720700
22.52799000 4.71053200 1.60484600
22.54847000 4.26191000 1.58720700
22.56895000 3.81328800 1.58720700
22.58943000 3.36466600 1.58720700
22.60991000 3.81328800 1.62254700
22.63039000 4.26191000 1.62254700
22.65087000 3.36466600 1.60484600
22.67135000 4.26191000 1.62254700
22.69183000 3.36466600 1.62254700
22.71231000 3.36466600 1.58720700
22.73279000 2.46742200 1.56956700
22.75327000 3.36466600 1.58720700
22.77375000 2.91604400 1.62254700
22.79423000 2.91604400 1.60484600
22.81471000 3.81328800 1.62254700
22.83519000 3.36466600 1.58720700
22.85567000 3.36466600 1.58720700
22.87615000 2.91604400 1.60484600
22.89663000 2.91604400 1.58720700
22.91711000 2.01879900 1.58720700
22.93759000 2.91604400 1.58720700
22.95807000 3.36466600 1.64018700
22.97855000 2.91604400 1.58720700
22.99903000 3.36466600 1.62254700
23.01951000 2.91604400 1.58720700
23.03999000 2.91604400 1.58720700
23.06047000 2.91604400 1.58720700
23.08095000 2.91604400 1.58720700
23.10143000 2.01879900 1.58720700
23.12191000 2.91604400 1.60484600
23.14239000 3.36466600 1.62254700
23.16287000 2.91604400 1.60484600
23.18335000 3.36466600 1.58720700
23.20383000 2.91604400 1.58720700
23.22431000 2.46742200 1.58720700
23.24479000 2.01879900 1.58720700
23.26527000 2.46742200 1.58720700
23.28575000 2.91604400 1.62254700
23.30623000 2.46742200 1.58720700
23.32671000 3.36466600 1.62254700
23.34719000 2.91604400 1.58720700
23.36767000 2.91604400 1.58720700
23.38815000 2.91604400 1.58720700
23.40863000 2.46742200 1.58720700
23.42911000 1.57017700 1.58720700
23.44959000 2.46742200 -1.59025800
23.47007000 2.91604400 -1.57261900
23.49055000 2.46742200 -1.60795900
23.51103000 2.91604400 -1.59025800
23.53151000 2.46742200 -1.59025800
23.55199000 2.46742200 -1.62559900
23.57247000 1.57017700 -1.64323900
23.59295000 2.46742200 -1.60795900
23.61343000 1.57017700 -1.60795900
23.63391000 2.46742200 -1.60795900
23.65439000 2.91604400 -1.59025800
23.67487000 2.46742200 -1.60795900
23.69535000 3.36466600 -1.59025800
23.71583000 2.91604400 -1.60795900
23.73631000 2.46742200 -1.60795900
23.75679000 1.57017700 -1.62559900
23.77727000 2.46742200 -1.60795900
23.79775000 2.91604400 -1.55497900
23.81823000 2.46742200 -1.60795900
23.83871000 3.36466600 -1.57261900
23.85919000 2.91604400 -1.60795900
23.87967000 2.91604400 -1.60795900
23.90015000 2.91604400 -1.59025800
23.92063000 2.46742200 -1.60795900
23.94111000 1.57017700 -1.60795900
23.96159000 2.46742200 -1.59025800
23.98207000 2.91604400 -1.57261900
24.00255000 2.46742200 -1.59025800
24.02303000 3.36466600 -1.59025800
24.04351000 2.46742200 -1.60795900
24.06399000 2.46742200 -1.60795900
24.08447000 1.57017700 -1.62559900
24.10495000 2.46742200 -1.60795900
24.12543000 2.01879900 -1.59025800
24.14591000 2.46742200 -1.59025800
24.16639000 2.91604400 -1.57261900
24.18687000 2.46742200 -1.59025800
24.20735000 2.91604400 -1.59025800
24.22783000 2.46742200 -1.59025800
24.24831000 2.46742200 -1.60795900
24.26879000 1.57017700 -1.60795900
24.28927000 2.46742200 -1.59025800
24.30975000 2.91604400 -1.55497900
24.33023000 2.46742200 -1.59025800
24.35071000 2.91604400 -1.57261900
24.37119000 2.46742200 -1.59025800
24.39167000 2.46742200 -1.60795900
24.41215000 1.12155500 -1.60795900
24.43263000 2.46742200 -1.59025800
24.45311000 1.57017700 -1.60795900
24.47359000 2.46742200 -1.59025800
24.49407000 2.91604400 -1.57261900
24.51455000 2.46742200 -1.59025800
24.53503000 2.91604400 -1.57261900
24.55551000 2.46742200 -1.59025800
24.57599000 2.46742200 -1.60795900
24.59647000 1.57017700 -1.60795900
24.61695000 2.46742200 -1.59025800
24.63743000 2.46742200 -1.55497900
24.65791000 2.46742200 -1.57261900
24.67839000 3.36466600 1.58720700
24.69887000 2.91604400 1.58720700
24.71935000 2.91604400 1.58720700
24.73983000 2.46742200 1.58720700
24.76031000 2.91604400 1.58720700
24.78079000 8.30103400 1.58720700
24.80127000 8.30103400 1.58720700
24.82175000 8.30103400 1.64018700
24.84223000 7.40226500 1.58720700
24.86271000 7.85088700 1.62254700
24.88319000 6.50502000 1.58720700
24.90367000 6.50502000 1.58720700
24.92415000 5.15915400 1.56956700
24.94463000 5.15915400 1.58720700
24.96511000 4.71053200 1.58720700
24.98559000 5.15915400 1.58720700
25.00607000 5.60777600 1.62254700
25.02655000 4.71053200 1.60484600
25.04703000 5.15915400 1.62254700
25.06751000 4.71053200 1.62254700
25.08799000 4.26191000 1.58720700
25.10847000 3.36466600 1.58720700
25.12895000 3.81328800 1.60484600
25.14943000 4.26191000 1.64018700
25.16991000 3.36466600 1.62254700
25.19039000 4.26191000 1.62254700
25.21087000 3.36466600 1.60484600
25.23135000 3.81328800 1.58720700
25.25183000 3.36466600 1.60484600
25.27231000 3.36466600 1.58720700
25.29279000 2.46742200 1.58720700
25.31327000 3.36466600 1.62254700
25.33375000 3.36466600 1.62254700
25.35423000 3.36466600 1.60484600
25.37471000 3.36466600 1.62254700
25.39519000 2.91604400 1.62254700
25.41567000 2.91604400 1.58720700
25.43615000 2.01879900 1.56956700
25.45663000 2.91604400 1.60484600
25.47711000 2.46742200 1.60484600
25.49759000 2.91604400 1.58720700
25.51807000 3.36466600 1.62254700
25.53855000 2.91604400 1.58720700
25.55903000 3.36466600 1.58720700
25.57951000 2.91604400 1.58720700
25.59999000 2.46742200 1.58720700
25.62047000 1.57017700 1.58720700
25.64095000 2.91604400 1.58720700
25.66143000 3.36466600 1.64018700
25.68191000 2.91604400 1.58720700
25.70239000 3.36466600 1.62254700
25.72287000 2.91604400 1.58720700
25.74335000 2.91604400 1.58720700
25.76383000 2.46742200 1.58720700
25.78431000 2.46742200 1.58720700
25.80479000 1.57017700 1.58720700
25.82527000 2.91604400 1.58720700
25.84575000 2.91604400 1.62254700
25.86623000 2.91604400 1.58720700
25.88671000 2.91604400 1.58720700
25.90719000 2.46742200 -1.55497900
25.92767000 2.46742200 -1.60795900
25.94815000 1.57017700 -1.60795900
25.96863000 2.46742200 -1.60795900
25.98911000 2.46742200 -1.59025800
26.00959000 2.46742200 -1.60795900
26.03007000 2.91604400 -1.57261900
26.05055000 2.46742200 -1.60795900
26.07103000 2.91604400 -1.60795900
26.09151000 2.46742200 -1.60795900
26.11199000 2.46742200 -1.60795900
26.13247000 1.57017700 -1.60795900
26.15295000 2.46742200 -1.60795900
26.17343000 2.91604400 -1.57261900
26.19391000 2.46742200 -1.60795900
26.21439000 2.91604400 -1.59025800
26.23487000 2.46742200 -1.60795900
26.25535000 2.46742200 -1.60795900
26.27583000 1.57017700 -1.62559900
26.29631000 2.46742200 -1.60795900
26.31679000 1.57017700 -1.60795900
26.33727000 2.91604400 -1.59025800
26.35775000 2.91604400 -1.57261900
26.37823000 2.46742200 -1.60795900
26.39871000 3.36466600 -1.59025800
26.41919000 2.46742200 -1.60795900
26.43967000 2.46742200 -1.60795900
26.46015000 1.57017700 -1.60795900
26.48063000 2.46742200 -1.60795900
26.50111000 2.91604400 -1.55497900
26.52159000 2.91604400 -1.59025800
26.54207000 3.36466600 -1.57261900
26.56255000 2.46742200 -1.59025800
26.58303000 2.46742200 -1.60795900
26.60351000 2.46742200 -1.59025800
26.62399000 2.46742200 -1.60795900
26.64447000 1.57017700 -1.60795900
26.66495000 2.46742200 -1.59025800
26.68543000 2.91604400 -1.57261900
26.70591000 2.91604400 -1.59025800
26.72639000 3.36466600 -1.59025800
26.74687000 2.46742200 -1.59025800
26.76735000 2.46742200 -1.60795900
26.78783000 1.57017700 -1.62559900
26.80831000 2.46742200 -1.59025800
26.82879000 2.01879900 -1.59025800
26.84927000 2.46742200 -1.59025800
26.86975000 3.36466600 -1.55497900
26.89023000 2.46742200 -1.59025800
26.91071000 2.91604400 -1.59025800
26.93119000 2.46742200 -1.59025800
26.95167000 2.46742200 -1.60795900
26.97215000 1.57017700 -1.60795900
26.99263000 2.91604400 -1.59025800
27.01311000 2.91604400 -1.55497900
27.03359000 2.46742200 -1.59025800
27.05407000 3.36466600 -1.57261900
27.07455000 2.46742200 -1.59025800
27.09503000 2.46742200 -1.60795900
27.11551000 2.91604400 -1.60795900
27.13599000 2.46742200 -1.59025800
27.15647000 2.01879900 1.58720700
27.17695000 2.46742200 1.58720700
27.19743000 2.91604400 1.62254700
27.21791000 2.46742200 1.58720700
27.23839000 5.15915400 1.62254700
27.25887000 4.26191000 1.58720700
27.27935000 3.81328800 1.58720700
27.29983000 3.36466600 1.58720700
27.32031000 3.81328800 1.58720700
27.34079000 3.36466600 1.58720700
27.36127000 3.36466600 1.58720700
27.38175000 4.26191000 1.62254700
27.40223000 3.36466600 1.60484600
27.42271000 3.81328800 1.60484600
27.44319000 3.36466600 1.62254700
27.46367000 3.36466600 1.58720700
27.48415000 2.91604400 1.58720700
27.50463000 3.36466600 1.62254700
27.52511000 3.36466600 1.64018700
27.54559000 2.91604400 1.62254700
27.56607000 3.36466600 1.62254700
27.58655000 2.91604400 1.62254700
27.60703000 2.91604400 1.58720700
27.62751000 2.01879900 1.56956700
27.64799000 2.91604400 1.58720700
27.66847000 2.01879900 1.58720700
27.68895000 2.91604400 1.62254700
27.70943000 3.36466600 1.62254700
27.72991000 2.91604400 1.60484600
27.75039000 3.36466600 1.62254700
27.77087000 2.91604400 1.62254700
27.79135000 2.46742200 1.58720700
27.81183000 2.01879900 1.58720700
27.83231000 2.91604400 1.58720700
27.85279000 2.91604400 1.62254700
27.87327000 2.91604400 1.58720700
27.89375000 3.36466600 1.62254700
27.91423000 2.91604400 1.58720700
27.93471000 2.91604400 1.58720700
27.95519000 2.91604400 1.58720700
27.97567000 2.46742200 1.58720700
27.99615000 2.01879900 1.58720700
28.01663000 2.91604400 1.58720700
28.03711000 2.91604400 1.62254700
28.05759000 2.46742200 1.62254700
28.07807000 3.36466600 1.62254700
28.09855000 2.91604400 1.58720700
28.11903000 2.46742200 1.58720700
28.13951000 1.57017700 1.55192700
28.15999000 2.91604400 1.58720700
28.18047000 2.01879900 1.58720700
28.20095000 2.46742200 1.58720700
28.22143000 3.36466600 1.62254700
28.24191000 2.91604400 1.60484600
28.26239000 3.36466600 1.58720700
28.28287000 2.46742200 1.58720700
28.30335000 2.46742200 1.58720700
28.32383000 1.57017700 1.56956700
28.34431000 2.91604400 1.58720700
28.36479000 3.36466600 1.62254700
28.38527000 2.46742200 -1.59025800
28.40575000 3.36466600 -1.59025800
28.42623000 2.46742200 -1.60795900
28.44671000 2.91604400 -1.60795900
28.46719000 1.57017700 -1.60795900
28.48767000 2.46742200 -1.60795900
28.50815000 1.57017700 -1.60795900
28.52863000 2.91604400 -1.60795900
28.54911000 2.91604400 -1.57261900
28.56959000 2.46742200 -1.59025800
28.59007000 3.36466600 -1.59025800
28.61055000 2.91604400 -1.59025800
28.63103000 2.46742200 -1.60795900
28.65151000 2.01879900 -1.62559900
28.67199000 2.46742200 -1.60795900
28.69247000 2.46742200 -1.59025800
28.71295000 2.91604400 -1.59025800
28.73343000 3.36466600 -1.57261900
28.75391000 2.91604400 -1.59025800
28.77439000 2.91604400 -1.60795900
28.79487000 2.91604400 -1.59025800
28.81535000 2.46742200 -1.60795900
28.83583000 2.01879900 -1.60795900
28.85631000 2.91604400 -1.59025800
28.87679000 3.36466600 -1.55497900
28.89727000 2.91604400 -1.59025800
28.91775000 3.36466600 -1.59025800
28.93823000 2.91604400 -1.60795900
28.95871000 2.46742200 -1.60795900
28.97919000 1.57017700 -1.62559900
28.99967000 2.46742200 -1.60795900
29.02015000 1.57017700 -1.60795900
29.04063000 2.91604400 -1.59025800
29.06111000 2.91604400 -1.57261900
29.08159000 2.91604400 -1.59025800
29.10207000 2.91604400 -1.59025800
29.12255000 2.91604400 -1.59025800
29.14303000 2.46742200 -1.60795900
29.16351000 2.01879900 -1.60795900
29.18399000 2.91604400 -1.59025800
29.20447000 3.36466600 -1.55497900
29.22495000 2.91604400 -1.59025800
29.24543000 3.36466600 -1.55497900
29.26591000 2.91604400 -1.59025800
29.28639000 2.91604400 -1.59025800
29.30687000 2.46742200 -1.59025800
29.32735000 2.46742200 -1.59025800
29.34783000 1.57017700 -1.59025800
29.36831000 2.91604400 -1.59025800
29.38879000 2.91604400 -1.57261900
29.40927000 2.91604400 -1.59025800
29.42975000 3.36466600 -1.57261900
29.45023000 2.91604400 -1.59025800
29.47071000 2.91604400 -1.60795900
29.49119000 1.57017700 -1.62559900
29.51167000 2.91604400 -1.59025800
29.53215000 2.01879900 -1.59025800
29.55263000 2.91604400 -1.59025800
29.57311000 3.36466600 -1.57261900
29.59359000 2.46742200 -1.59025800
29.61407000 3.36466600 1.58720700
29.63455000 2.46742200 1.58720700
29.65503000 2.91604400 1.58720700
29.67551000 1.57017700 1.56956700
29.69599000 13.23588000 1.58720700
29.71647000 14.13465000 1.64018700
29.73695000 12.78726000 1.58720700
29.75743000 12.78726000 1.62254700
29.77791000 11.44139000 1.58720700
29.79839000 10.54414000 1.58720700
29.81887000 10.09552000 1.58720700
29.83935000 9.19827800 1.58720700
29.85983000 8.30103400 1.58720700
29.88031000 8.30103400 1.58720700
29.90079000 8.30103400 1.62254700
29.92127000 7.40226500 1.62254700
29.94175000 7.85088700 1.62254700
29.96223000 6.95364200 1.60484600
29.98271000 6.50502000 1.58720700
30.00319000 5.15915400 1.58720700
30.02367000 5.60777600 1.58720700
30.04415000 5.15915400 1.60484600
30.06463000 5.15915400 1.62254700
30.08511000 6.05639800 1.62254700
30.10559000 5.15915400 1.62254700
30.12607000 5.15915400 1.60484600
30.14655000 4.71053200 1.60484600
30.16703000 4.26191000 1.58720700
30.18751000 3.36466600 1.58720700
30.20799000 4.26191000 1.58720700
30.22847000 4.26191000 1.62254700
30.24895000 3.81328800 1.60484600
30.26943000 4.26191000 1.62254700
30.28991000 3.81328800 1.58720700
30.31039000 3.36466600 1.58720700
30.33087000 2.91604400 1.58720700
30.35135000 3.36466600 1.58720700
30.37183000 2.91604400 1.58720700
30.39231000 3.36466600 1.58720700
30.41279000 3.81328800 1.62254700
30.43327000 3.36466600 1.60484600
30.45375000 3.36466600 1.60484600
30.47423000 3.36466600 1.58720700
30.49471000 2.91604400 1.58720700
30.51519000 2.46742200 1.58720700
30.53567000 2.91604400 1.58720700
30.55615000 3.36466600 1.62254700
30.57663000 2.91604400 1.58720700
30.59711000 3.36466600 1.62254700
30.61759000 2.91604400 1.58720700
30.63807000 2.91604400 1.58720700
30.65855000 2.91604400 1.58720700
30.67903000 2.91604400 1.58720700
30.69951000 2.01879900 1.58720700
30.71999000 2.91604400 1.60484600
30.74047000 3.36466600 1.62254700
30.76095000 2.91604400 1.58720700
30.78143000 3.36466600 1.62254700
30.80191000 2.91604400 1.58720700
30.82239000 2.91604400 1.58720700
30.84287000 1.57017700 -1.62559900
30.86335000 2.46742200 -1.60795900
30.88383000 2.01879900 -1.60795900
30.90431000 2.91604400 -1.60795900
30.92479000 3.36466600 -1.57261900
30.94527000 2.91604400 -1.60795900
30.96575000 3.36466600 -1.59025800
30.98623000 2.91604400 -1.60795900
31.00671000 2.91604400 -1.60795900
31.02719000 1.57017700 -1.62559900
31.04767000 2.91604400 -1.60795900
31.06815000 2.91604400 -1.55497900
31.08863000 2.91604400 -1.59025800
31.10911000 3.36466600 -1.59025800
31.12959000 2.91604400 -1.60795900
31.15007000 2.91604400 -1.60795900
31.17055000 3.81328800 -1.60795900
31.19103000 2.46742200 -1.60795900
31.21151000 2.01879900 -1.60795900
31.23199000 2.91604400 -1.60795900
31.25247000 3.36466600 -1.59025800
31.27295000 2.91604400 -1.60795900
31.29343000 3.36466600 -1.59025800
31.31391000 2.91604400 -1.60795900
31.33439000 2.46742200 -1.60795900
31.35487000 1.57017700 -1.60795900
31.37535000 2.91604400 -1.59025800
31.39583000 2.46742200 -1.59025800
31.41631000 2.91604400 -1.59025800
31.43679000 3.36466600 -1.57261900
31.45727000 2.91604400 -1.59025800
31.47775000 2.91604400 -1.60795900
31.49823000 2.91604400 -1.59025800
31.51871000 2.46742200 -1.60795900
31.53919000 2.01879900 -1.60795900
31.55967000 2.91604400 -1.59025800
31.58015000 2.91604400 -1.57261900
31.60063000 2.91604400 -1.59025800
31.62111000 3.36466600 -1.57261900
31.64159000 2.91604400 -1.59025800
31.66207000 2.91604400 -1.60795900
31.68255000 1.57017700 -1.60795900
31.70303000 2.91604400 -1.59025800
31.72351000 2.01879900 -1.60795900
31.74399000 2.91604400 -1.59025800
31.76447000 3.36466600 -1.55497900
31.78495000 2.91604400 -1.59025800
31.80543000 3.36466600 -1.57261900
31.82591000 2.91604400 -1.59025800
31.84639000 2.91604400 -1.60795900
31.86687000 1.57017700 -1.60795900
31.88735000 2.91604400 -1.59025800
31.90783000 2.91604400 -1.57261900
31.92831000 2.91604400 -1.59025800
31.94879000 3.36466600 -1.57261900
31.96927000 2.91604400 -1.59025800
31.98975000 2.91604400 -1.59025800
32.01023000 2.46742200 -1.59025800
32.03071000 2.46742200 -1.59025800
32.05119000 2.01879900 -1.59025800
32.07167000 2.91604400 1.53422700
32.09215000 3.36466600 1.62254700
32.11263000 2.91604400 1.58720700
32.13311000 3.36466600 1.62254700
32.15359000 2.91604400 1.58720700
32.17407000 5.15915400 1.58720700
32.19455000 3.36466600 1.55192700
32.21503000 4.71053200 1.58720700
32.23551000 3.81328800 1.58720700
32.25599000 4.26191000 1.58720700
32.27647000 4.71053200 1.62254700
32.29695000 4.26191000 1.58720700
32.31743000 4.71053200 1.62254700
32.33791000 3.36466600 1.58720700
32.35839000 3.81328800 1.58720700
32.37887000 2.91604400 1.58720700
32.39935000 3.36466600 1.60484600
32.41983000 3.81328800 1.64018700
32.44031000 3.36466600 1.62254700
32.46079000 3.81328800 1.62254700
32.48127000 3.36466600 1.58720700
32.50175000 3.36466600 1.58720700
32.52223000 3.36466600 1.58720700
32.54271000 3.36466600 1.58720700
32.56319000 2.46742200 1.58720700
32.58367000 3.36466600 1.60484600
32.60415000 3.36466600 1.62254700
32.62463000 2.91604400 1.62254700
32.64511000 3.81328800 1.62254700
32.66559000 3.36466600 1.58720700
32.68607000 2.91604400 1.58720700
32.70655000 2.01879900 1.56956700
32.72703000 2.91604400 1.60484600
32.74751000 2.91604400 1.62254700
32.76799000 2.91604400 1.58720700
32.78847000 3.36466600 1.62254700
32.80895000 2.91604400 1.58720700
32.82943000 3.36466600 1.58720700
32.84991000 2.91604400 1.60484600
32.87039000 2.91604400 1.58720700
32.89087000 2.01879900 1.58720700
32.91135000 2.91604400 1.60484600
32.93183000 3.36466600 1.62254700
32.95231000 2.91604400 1.58720700
32.97279000 3.36466600 1.62254700
32.99327000 2.91604400 1.60484600
33.01375000 2.91604400 1.58720700
33.03423000 2.46742200 1.58720700
33.05471000 2.91604400 1.58720700
33.07519000 2.01879900 1.58720700
33.09567000 2.91604400 1.60484600
33.11615000 3.36466600 1.62254700
33.13663000 2.91604400 1.58720700
33.15711000 3.36466600 1.62254700
33.17759000 2.91604400 1.58720700
33.19807000 2.46742200 1.58720700
33.21855000 2.46742200 1.58720700
33.23903000 2.91604400 1.58720700
33.25951000 2.91604400 1.62254700
33.27999000 2.91604400 1.58720700
33.30047000 3.36466600 1.62254700
33.32095000 2.46742200 -1.60795900
33.34143000 2.91604400 -1.60795900
33.36191000 2.46742200 -1.59025800
33.38239000 2.46742200 -1.60795900
33.40287000 1.57017700 -1.60795900
33.42335000 2.91604400 -1.59025800
33.44383000 3.36466600 -1.59025800
33.46431000 2.91604400 -1.60795900
33.48479000 3.36466600 -1.59025800
33.50527000 2.91604400 -1.60795900
33.52575000 2.91604400 -1.62559900
33.54623000 1.57017700 -1.64323900
33.56671000 2.91604400 -1.60795900
33.58719000 2.01879900 -1.60795900
33.60767000 2.91604400 -1.60795900
33.62815000 3.36466600 -1.57261900
33.64863000 2.91604400 -1.60795900
33.66911000 3.36466600 -1.59025800
33.68959000 2.91604400 -1.60795900
33.71008000 2.91604400 -1.60795900
33.73055000 2.01879900 -1.62559900
33.75103000 2.91604400 -1.60795900
33.77151000 3.36466600 -1.55497900
33.79199000 2.91604400 -1.59025800
33.81247000 3.36466600 -1.57261900
33.83295000 2.91604400 -1.60795900
33.85343000 2.91604400 -1.60795900
33.87391000 2.91604400 -1.59025800
33.89439000 2.46742200 -1.60795900
33.91487000 1.57017700 -1.60795900
33.93535000 2.91604400 -1.59025800
33.95583000 2.91604400 -1.57261900
33.97631000 2.91604400 -1.59025800
33.99679000 3.36466600 -1.59025800
34.01727000 2.91604400 -1.59025800
34.03775000 2.91604400 -1.60795900
34.05823000 1.57017700 -1.62559900
34.07871000 2.91604400 -1.60795900
34.09919000 2.46742200 -1.59025800
34.11967000 2.91604400 -1.59025800
34.14015000 3.36466600 -1.55497900
34.16063000 2.91604400 -1.59025800
34.18111000 3.36466600 -1.59025800
34.20159000 2.91604400 -1.59025800
34.22207000 2.91604400 -1.60795900
34.24255000 2.01879900 -1.60795900
34.26303000 2.91604400 -1.59025800
34.28351000 3.36466600 -1.55497900
34.30399000 2.91604400 -1.59025800
34.32447000 3.36466600 -1.57261900
34.34495000 2.91604400 -1.59025800
34.36543000 2.91604400 -1.60795900
34.38591000 1.12155500 -1.60795900
34.40639000 2.91604400 -1.59025800
34.42687000 2.01879900 -1.60795900
34.44735000 2.91604400 -1.59025800
34.46783000 3.36466600 -1.55497900
34.48831000 2.91604400 -1.59025800
34.50879000 3.36466600 -1.57261900
34.52927000 2.91604400 -1.59025800
34.54975000 2.91604400 1.58720700
34.57023000 2.46742200 1.56956700
34.59071000 2.91604400 1.58720700
34.61119000 2.91604400 1.62254700
34.63167000 6.95364200 1.58720700
34.65215000 7.85088700 1.62254700
34.67263000 6.95364200 1.60484600
34.69311000 6.95364200 1.60484600
34.71359000 6.50502000 1.60484600
34.73407000 6.05639800 1.58720700
34.75455000 5.15915400 1.58720700
34.77503000 5.15915400 1.58720700
34.79551000 5.60777600 1.64018700
34.81599000 5.15915400 1.60484600
34.83647000 5.15915400 1.62254700
34.85695000 4.71053200 1.62254700
34.87743000 4.71053200 1.58720700
34.89791000 3.36466600 1.56956700
34.91839000 4.26191000 1.60484600
34.93887000 3.36466600 1.58720700
34.95935000 3.81328800 1.58720700
34.97983000 4.71053200 1.62254700
35.00031000 3.81328800 1.60484600
35.02079000 4.26191000 1.62254700
35.04127000 3.36466600 1.62254700
35.06175000 3.36466600 1.58720700
35.08223000 2.91604400 1.58720700
35.10271000 3.36466600 1.62254700
35.12319000 3.36466600 1.64018700
35.14367000 3.36466600 1.62254700
35.16415000 4.26191000 1.62254700
35.18463000 3.36466600 1.58720700
35.20511000 3.36466600 1.58720700
35.22559000 3.36466600 1.60484600
35.24607000 3.36466600 1.58720700
35.26655000 2.46742200 1.58720700
35.28703000 3.36466600 1.60484600
35.30751000 3.36466600 1.62254700
35.32799000 2.91604400 1.58720700
35.34847000 3.36466600 1.62254700
35.36895000 2.91604400 1.58720700
35.38943000 2.91604400 1.58720700
35.40991000 2.01879900 1.55192700
35.43039000 2.91604400 1.58720700
35.45087000 2.46742200 1.58720700
35.47136000 2.91604400 1.58720700
35.49183000 3.36466600 1.62254700
35.51231000 2.91604400 1.58720700
35.53279000 3.36466600 1.58720700
35.55327000 2.91604400 1.58720700
35.57375000 2.91604400 1.58720700
35.59423000 2.01879900 1.56956700
35.61471000 2.91604400 1.58720700
35.63519000 3.36466600 1.62254700
35.65567000 2.91604400 1.58720700
35.67615000 3.81328800 1.62254700
35.69663000 2.91604400 1.58720700
35.71711000 2.91604400 1.58720700
35.73759000 2.01879900 1.58720700
35.75807000 2.46742200 1.58720700
35.77855000 2.01879900 -1.59025800
35.79903000 2.91604400 -1.59025800
35.81951000 3.36466600 -1.57261900
35.83999000 2.91604400 -1.59025800
35.86047000 3.36466600 -1.59025800
35.88095000 2.91604400 -1.59025800
35.90143000 2.91604400 -1.62559900
35.92191000 2.01879900 -1.62559900
35.94239000 2.91604400 -1.60795900
35.96287000 2.46742200 -1.59025800
35.98335000 2.91604400 -1.60795900
36.00383000 3.36466600 -1.57261900
36.02431000 2.91604400 -1.60795900
36.04479000 3.36466600 -1.60795900
36.06527000 2.91604400 -1.59025800
36.08575000 2.91604400 -1.60795900
36.10623000 2.01879900 -1.62559900
36.12671000 2.91604400 -1.60795900
36.14719000 3.36466600 -1.55497900
36.16768000 2.91604400 -1.60795900
36.18815000 3.36466600 -1.57261900
36.20863000 2.46742200 -1.59025800
36.22911000 2.91604400 -1.60795900
36.24959000 2.46742200 -1.62559900
36.27007000 2.91604400 -1.60795900
36.29055000 2.01879900 -1.60795900
36.31103000 2.91604400 -1.59025800
36.33151000 3.36466600 -1.57261900
36.35199000 2.91604400 -1.59025800
36.37247000 3.36466600 -1.59025800
36.39295000 2.91604400 -1.59025800
36.41343000 2.91604400 -1.60795900
36.43391000 2.46742200 -1.60795900
36.45439000 2.91604400 -1.59025800
36.47487000 3.36466600 -1.55497900
36.49535000 2.91604400 -1.59025800
36.51583000 3.36466600 -1.57261900
36.53631000 2.91604400 -1.59025800
36.55679000 3.36466600 -1.60795900
36.57727000 2.91604400 -1.59025800
36.59775000 2.91604400 -1.60795900
36.61823000 2.01879900 -1.60795900
36.63871000 2.91604400 -1.59025800
36.65919000 2.91604400 -1.57261900
36.67967000 2.91604400 -1.59025800
36.70015000 3.36466600 -1.57261900
36.72063000 2.91604400 -1.59025800
36.74111000 2.91604400 -1.60795900
36.76159000 1.57017700 -1.62559900
36.78207000 2.91604400 -1.59025800
36.80255000 2.46742200 -1.59025800
36.82303000 2.91604400 -1.59025800
36.84351000 3.36466600 -1.57261900
36.86399000 2.91604400 -1.59025800
36.88447000 3.36466600 -1.57261900
36.90495000 2.91604400 -1.59025800
36.92543000 2.91604400 -1.59025800
36.94591000 1.57017700 -1.60795900
36.96639000 2.91604400 -1.59025800
36.98687000 3.36466600 -1.55497900
37.00735000 2.91604400 1.56956700
37.02783000 3.36466600 1.62254700
37.04831000 2.91604400 1.58720700
37.06879000 3.36466600 1.58720700
37.08927000 2.91604400 1.58720700
37.10975000 12.78726000 1.58720700
37.13023000 11.89001000 1.58720700
37.15071000 11.89001000 1.62254700
37.17119000 11.44139000 1.62254700
37.19167000 10.54414000 1.58720700
37.21215000 10.54414000 1.62254700
37.23264000 9.19827800 1.58720700
37.25311000 8.74965700 1.58720700
37.27359000 6.95364200 1.58720700
37.29407000 7.85088700 1.58720700
37.31455000 6.95364200 1.58720700
37.33503000 6.95364200 1.62254700
37.35551000 6.95364200 1.62254700
37.37599000 6.50502000 1.60484600
37.39647000 6.50502000 1.62254700
37.41695000 6.05639800 1.62254700
37.43743000 5.15915400 1.58720700
37.45791000 4.26191000 1.58720700
37.47839000 5.15915400 1.60484600
37.49887000 5.15915400 1.64018700
37.51935000 4.71053200 1.60484600
37.53983000 5.15915400 1.62254700
37.56031000 4.26191000 1.58720700
37.58079000 4.26191000 1.58720700
37.60127000 3.36466600 1.56956700
37.62175000 3.81328800 1.58720700
37.64223000 3.36466600 1.58720700
37.66271000 3.36466600 1.60484600
37.68319000 4.26191000 1.62254700
37.70367000 3.36466600 1.58720700
37.72415000 4.26191000 1.62254700
37.74463000 3.36466600 1.60484600
37.76511000 3.36466600 1.58720700
37.78559000 2.91604400 1.58720700
37.80607000 3.36466600 1.58720700
37.82655000 3.36466600 1.62254700
37.84703000 3.36466600 1.58720700
37.86751000 3.81328800 1.62254700
37.88799000 3.36466600 1.58720700
37.90847000 3.36466600 1.58720700
37.92896000 3.36466600 1.58720700
37.94943000 2.91604400 1.58720700
37.96991000 2.46742200 1.58720700
37.99039000 2.91604400 1.58720700
38.01087000 3.36466600 1.62254700
38.03135000 2.91604400 1.58720700
38.05183000 3.36466600 1.62254700
38.07231000 2.91604400 1.58720700
38.09279000 2.91604400 1.58720700
38.11327000 1.57017700 1.55192700
38.13375000 2.91604400 1.58720700
38.15423000 2.01879900 1.58720700
38.17471000 2.91604400 1.58720700
38.19519000 3.36466600 1.62254700
38.21567000 2.91604400 1.58720700
38.23615000 3.36466600 -1.51963900
38.25663000 2.91604400 -1.60795900
38.27711000 2.46742200 -1.60795900
38.29759000 1.57017700 -1.62559900
38.31807000 2.91604400 -1.60795900
38.33855000 3.36466600 -1.57261900
38.35903000 2.91604400 -1.60795900
38.37951000 3.36466600 -1.57261900
38.39999000 2.46742200 -1.60795900
38.42047000 2.91604400 -1.60795900
38.44095000 2.91604400 -1.60795900
38.46143000 2.46742200 -1.62559900
38.48191000 1.57017700 -1.60795900
38.50239000 2.46742200 -1.59025800
38.52287000 2.91604400 -1.59025800
38.54335000 2.91604400 -1.60795900
38.56383000 3.36466600 -1.59025800
38.58431000 2.91604400 -1.59025800
38.60479000 2.91604400 -1.60795900
38.62527000 1.57017700 -1.62559900
38.64575000 2.46742200 -1.60795900
38.66623000 2.01879900 -1.59025800
38.68671000 2.91604400 -1.60795900
38.70719000 3.36466600 -1.57261900
38.72767000 2.46742200 -1.60795900
38.74815000 2.91604400 -1.60795900
38.76863000 2.91604400 -1.60795900
38.78911000 2.91604400 -1.60795900
38.80959000 1.57017700 -1.60795900
38.83007000 2.46742200 -1.60795900
38.85055000 3.36466600 -1.55497900
38.87103000 2.91604400 -1.60795900
38.89151000 3.36466600 -1.59025800
38.91199000 2.91604400 -1.59025800
38.93247000 2.46742200 -1.60795900
38.95295000 1.12155500 -1.60795900
38.97343000 2.46742200 -1.59025800
38.99392000 2.01879900 -1.60795900
39.01439000 2.46742200 -1.59025800
39.03487000 2.91604400 -1.57261900
39.05535000 2.91604400 -1.59025800
39.07583000 3.36466600 -1.59025800
39.09631000 2.91604400 -1.59025800
39.11679000 2.46742200 -1.60795900
39.13727000 2.01879900 -1.60795900
39.15775000 2.91604400 -1.59025800
39.17823000 2.91604400 -1.57261900
39.19871000 2.46742200 -1.59025800
39.21919000 3.36466600 -1.57261900
39.23967000 2.46742200 -1.59025800
39.26015000 2.91604400 -1.59025800
39.28063000 2.46742200 -1.59025800
39.30111000 2.91604400 -1.59025800
39.32159000 1.57017700 -1.60795900
39.34207000 2.91604400 -1.57261900
39.36255000 2.91604400 -1.55497900
39.38303000 2.46742200 -1.59025800
39.40351000 3.36466600 -1.57261900
39.42399000 2.46742200 -1.59025800
39.44447000 2.46742200 -1.60795900
39.46495000 2.01879900 -1.62559900
39.48543000 2.91604400 1.58720700
39.50591000 2.01879900 1.58720700
39.52639000 2.91604400 1.58720700
39.54688000 3.36466600 1.62254700
39.56735000 12.78726000 1.58720700
39.58783000 13.23588000 1.60484600
39.60831000 11.89001000 1.58720700
39.62879000 10.54414000 1.58720700
39.64927000 9.64690000 1.58720700
39.66975000 9.64690000 1.58720700
39.69024000 8.74965700 1.62254700
39.71071000 8.74965700 1.58720700
39.73119000 8.74965700 1.62254700
39.75167000 7.85088700 1.62254700
39.77215000 7.85088700 1.58720700
39.79263000 6.95364200 1.60484600
39.81311000 6.50502000 1.58720700
39.83359000 5.15915400 1.58720700
39.85407000 6.05639800 1.60484600
39.87455000 6.05639800 1.62254700
39.89503000 5.15915400 1.60484600
39.91551000 6.05639800 1.62254700
39.93599000 5.15915400 1.60484600
39.95647000 4.71053200 1.58720700
39.97695000 3.81328800 1.56956700
39.99743000 4.71053200 1.58720700
40.01791000 3.81328800 1.60484600
40.03839000 4.26191000 1.60484600
40.05887000 4.71053200 1.62254700
40.07935000 3.81328800 1.60484600
40.09983000 4.26191000 1.60484600
40.12031000 3.81328800 1.60484600
40.14079000 3.36466600 1.58720700
40.16127000 2.46742200 1.58720700
40.18175000 3.36466600 1.58720700
40.20223000 3.36466600 1.62254700
40.22271000 3.36466600 1.58720700
40.24319000 3.81328800 1.62254700
40.26367000 2.91604400 1.58720700
40.28415000 3.36466600 1.58720700
40.30463000 4.26191000 1.58720700
40.32511000 2.91604400 1.58720700
40.34559000 2.46742200 1.58720700
40.36607000 2.91604400 1.60484600
40.38655000 3.36466600 1.62254700
40.40703000 2.91604400 1.58720700
40.42751000 3.36466600 1.62254700
40.44799000 2.91604400 1.58720700
40.46847000 2.91604400 1.58720700
40.48895000 2.46742200 1.58720700
40.50943000 2.91604400 1.58720700
40.52991000 2.91604400 1.62254700
40.55039000 2.91604400 1.58720700
40.57087000 3.36466600 1.62254700
40.59135000 2.91604400 1.58720700
40.61183000 2.91604400 1.58720700
40.63231000 2.91604400 1.58720700
40.65279000 2.46742200 1.58720700
40.67327000 2.01879900 1.56956700
40.69375000 2.91604400 1.58720700
40.71423000 2.91604400 -1.55497900
40.73471000 2.91604400 -1.59025800
40.75519000 3.36466600 -1.59025800
40.77567000 2.46742200 -1.60795900
40.79615000 2.46742200 -1.60795900
40.81663000 1.57017700 -1.62559900
40.83711000 2.46742200 -1.60795900
40.85759000 1.57017700 -1.60795900
40.87807000 2.46742200 -1.59025800
40.89855000 2.91604400 -1.57261900
40.91903000 2.46742200 -1.60795900
40.93951000 3.36466600 -1.59025800
40.95999000 2.46742200 -1.60795900
40.98047000 2.46742200 -1.60795900
41.00095000 1.57017700 -1.62559900
41.02143000 2.46742200 -1.60795900
41.04191000 2.91604400 -1.57261900
41.06239000 2.46742200 -1.59025800
41.08287000 3.36466600 -1.57261900
41.10335000 2.91604400 -1.59025800
41.12383000 2.91604400 -1.60795900
41.14431000 2.91604400 -1.59025800
41.16479000 2.46742200 -1.60795900
41.18527000 1.57017700 -1.60795900
41.20575000 2.46742200 -1.60795900
41.22623000 2.91604400 -1.57261900
41.24671000 2.91604400 -1.59025800
41.26719000 3.36466600 -1.57261900
41.28767000 2.46742200 -1.59025800
41.30816000 2.46742200 -1.60795900
41.32863000 1.57017700 -1.62559900
41.34911000 2.46742200 -1.59025800
41.36959000 2.01879900 -1.60795900
41.39007000 2.46742200 -1.60795900
41.41055000 3.36466600 -1.55497900
41.43103000 2.46742200 -1.59025800
41.45151000 3.36466600 -1.59025800
41.47199000 2.46742200 -1.59025800
41.49247000 2.91604400 -1.59025800
41.51295000 1.57017700 -1.60795900
41.53343000 2.46742200 -1.59025800
41.55391000 2.91604400 -1.55497900
41.57439000 2.46742200 -1.59025800
41.59487000 3.36466600 -1.57261900
41.61535000 2.91604400 -1.59025800
41.63583000 2.91604400 -1.60795900
41.65631000 2.91604400 -1.59025800
41.67679000 2.46742200 -1.59025800
41.69727000 1.57017700 -1.59025800
41.71775000 2.91604400 -1.59025800
41.73823000 2.91604400 -1.57261900
41.75871000 2.46742200 -1.59025800
41.77919000 3.36466600 -1.57261900
41.79967000 2.46742200 -1.59025800
41.82015000 2.46742200 -1.59025800
41.84063000 2.01879900 -1.60795900
41.86111000 2.46742200 -1.59025800
41.88159000 2.46742200 -1.57261900
41.90207000 2.91604400 -1.59025800
41.92255000 3.36466600 -1.55497900
41.94303000 2.91604400 1.58720700
41.96351000 2.91604400 1.58720700
41.98399000 2.91604400 1.58720700
42.00447000 2.46742200 1.58720700
42.02495000 4.26191000 1.58720700
42.04543000 5.60777600 1.60484600
42.06591000 5.60777600 1.62254700
42.08639000 5.15915400 1.58720700
42.10687000 5.15915400 1.62254700
42.12735000 4.71053200 1.60484600
42.14783000 4.71053200 1.58720700
42.16831000 3.36466600 1.56956700
42.18879000 4.26191000 1.58720700
42.20927000 3.36466600 1.58720700
42.22975000 3.81328800 1.60484600
42.25023000 4.26191000 1.64018700
42.27071000 3.36466600 1.62254700
42.29119000 4.26191000 1.62254700
42.31167000 3.36466600 1.60484600
42.33215000 3.36466600 1.58720700
42.35263000 2.91604400 1.58720700
42.37311000 3.36466600 1.58720700
42.39359000 3.36466600 1.64018700
42.41407000 3.36466600 1.60484600
42.43455000 3.81328800 1.62254700
42.45503000 2.91604400 1.60484600
42.47551000 3.36466600 1.58720700
42.49599000 2.91604400 1.62254700
42.51647000 2.91604400 1.58720700
42.53695000 2.46742200 1.58720700
42.55743000 2.91604400 1.62254700
42.57791000 3.36466600 1.62254700
42.59839000 2.91604400 1.60484600
42.61887000 3.36466600 1.62254700
42.63935000 2.91604400 1.62254700
42.65983000 2.91604400 1.58720700
42.68031000 1.57017700 1.56956700
42.70079000 2.91604400 1.58720700
42.72127000 2.46742200 1.58720700
42.74175000 2.91604400 1.58720700
42.76223000 3.36466600 1.62254700
42.78271000 2.91604400 1.60484600
42.80319000 3.36466600 1.60484600
42.82367000 2.91604400 1.58720700
42.84415000 2.46742200 1.58720700
42.86463000 1.57017700 1.58720700
42.88511000 2.91604400 1.58720700
42.90559000 3.36466600 1.64018700
42.92607000 2.91604400 1.58720700
42.94655000 3.36466600 1.62254700
42.96703000 2.91604400 1.58720700
42.98751000 2.91604400 1.58720700
43.00799000 2.46742200 1.58720700
43.02847000 2.91604400 1.58720700
43.04895000 1.57017700 1.58720700
43.06944000 2.91604400 1.58720700
43.08991000 2.91604400 1.62254700
43.11039000 2.46742200 1.58720700
43.13087000 3.36466600 1.62254700
43.15135000 2.46742200 1.58720700
43.17183000 2.46742200 -1.57261900
43.19231000 1.57017700 -1.62559900
43.21279000 2.46742200 -1.60795900
43.23327000 2.46742200 -1.59025800
43.25375000 2.46742200 -1.60795900
43.27423000 3.36466600 -1.57261900
43.29471000 2.46742200 -1.60795900
43.31519000 2.91604400 -1.60795900
43.33567000 2.46742200 -1.60795900
43.35615000 2.46742200 -1.60795900
43.37663000 1.57017700 -1.60795900
43.39711000 2.46742200 -1.60795900
43.41759000 3.36466600 -1.55497900
43.43807000 2.46742200 -1.59025800
43.45855000 3.36466600 -1.59025800
43.47903000 2.46742200 -1.60795900
43.49951000 2.46742200 -1.60795900
43.51999000 2.01879900 -1.62559900
43.54047000 2.46742200 -1.60795900
43.56095000 1.57017700 -1.60795900
43.58143000 2.91604400 -1.60795900
43.60191000 2.91604400 -1.57261900
43.62239000 2.91604400 -1.60795900
43.64287000 3.36466600 -1.59025800
43.66335000 2.46742200 -1.60795900
43.68383000 2.46742200 -1.60795900
43.70431000 1.57017700 -1.60795900
43.72479000 2.46742200 -1.59025800
43.74527000 2.91604400 -1.55497900
43.76575000 2.91604400 -1.59025800
43.78623000 2.91604400 -1.57261900
43.80671000 2.46742200 -1.59025800
43.82719000 2.91604400 -1.60795900
43.84767000 2.46742200 -1.59025800
43.86815000 2.46742200 -1.60795900
43.88863000 1.57017700 -1.60795900
43.90911000 2.46742200 -1.59025800
43.92959000 2.91604400 -1.57261900
43.95007000 2.46742200 -1.59025800
43.97055000 3.36466600 -1.57261900
43.99103000 2.46742200 -1.59025800
44.01151000 2.46742200 -1.60795900
44.03199000 1.57017700 -1.62559900
44.05247000 2.46742200 -1.60795900
44.07295000 1.57017700 -1.59025800
44.09343000 2.46742200 -1.59025800
44.11391000 2.91604400 -1.55497900
44.13439000 2.46742200 -1.59025800
44.15487000 2.91604400 -1.59025800
44.17535000 2.46742200 -1.59025800
44.19583000 2.46742200 -1.60795900
44.21631000 1.57017700 -1.60795900
44.23679000 2.46742200 -1.59025800
44.25727000 2.91604400 -1.55497900
44.27775000 2.91604400 -1.59025800
44.29823000 2.91604400 -1.57261900
44.31871000 2.46742200 -1.59025800
44.33919000 2.91604400 -1.59025800
44.35967000 2.46742200 -1.59025800
44.38015000 2.46742200 -1.59025800
44.40063000 1.57017700 1.49894700
44.42111000 2.91604400 1.58720700
44.44159000 2.91604400 1.62254700
44.46207000 2.91604400 1.58720700
44.48255000 2.91604400 1.62254700
44.50303000 22.65999000 1.58720700
44.52351000 21.31413000 1.58720700
44.54399000 19.06949000 1.56956700
44.56447000 18.62087000 1.58720700
44.58495000 16.82638000 1.58720700
44.60543000 15.92914000 1.60484600
44.62591000 15.92914000 1.62254700
44.64639000 14.13465000 1.60484600
44.66687000 13.68450000 1.60484600
44.68735000 12.33863000 1.60484600
44.70783000 11.44139000 1.58720700
44.72831000 10.09552000 1.58720700
44.74879000 10.09552000 1.60484600
44.76927000 10.09552000 1.64018700
44.78975000 8.74965700 1.62254700
44.81023000 8.74965700 1.62254700
44.83072000 7.85088700 1.62254700
44.85119000 7.40226500 1.58720700
44.87167000 6.95364200 1.58720700
44.89215000 6.50502000 1.58720700
44.91263000 5.60777600 1.58720700
44.93311000 6.05639800 1.62254700
44.95359000 6.05639800 1.62254700
44.97407000 5.15915400 1.60484600
44.99455000 6.05639800 1.62254700
45.01503000 5.15915400 1.62254700
45.03551000 4.71053200 1.58720700
45.05599000 3.81328800 1.58720700
45.07647000 4.26191000 1.58720700
45.09695000 4.71053200 1.62254700
45.11743000 4.26191000 1.58720700
45.13791000 4.71053200 1.62254700
45.15839000 3.81328800 1.60484600
45.17887000 4.26191000 1.58720700
45.19935000 3.36466600 1.60484600
45.21983000 3.36466600 1.58720700
45.24031000 2.91604400 1.58720700
45.26079000 3.36466600 1.60484600
45.28127000 3.81328800 1.62254700
45.30175000 3.36466600 1.58720700
45.32223000 3.81328800 1.62254700
45.34271000 2.91604400 1.60484600
45.36319000 2.91604400 1.58720700
45.38367000 2.01879900 1.55192700
45.40415000 2.91604400 1.58720700
45.42463000 2.46742200 1.58720700
45.44511000 2.91604400 1.58720700
45.46559000 3.36466600 1.62254700
45.48607000 2.91604400 1.58720700
45.50655000 3.36466600 1.60484600
45.52703000 2.91604400 1.58720700
45.54751000 2.91604400 1.58720700
45.56799000 1.57017700 1.56956700
45.58847000 2.91604400 1.58720700
45.60895000 3.36466600 1.62254700
45.62943000 2.91604400 1.58720700
45.64991000 3.36466600 -1.57261900
45.67039000 2.91604400 -1.60795900
45.69087000 2.91604400 -1.60795900
45.71135000 2.46742200 -1.60795900
45.73183000 2.46742200 -1.60795900
45.75231000 1.57017700 -1.60795900
45.77279000 2.91604400 -1.60795900
45.79327000 2.91604400 -1.59025800
45.81375000 2.46742200 -1.60795900
45.83423000 2.91604400 -1.59025800
45.85471000 2.46742200 -1.60795900
45.87519000 2.46742200 -1.60795900
45.89567000 1.57017700 -1.62559900
45.91615000 2.46742200 -1.60795900
45.93663000 2.46742200 -1.59025800
45.95711000 2.46742200 -1.60795900
45.97759000 3.36466600 -1.57261900
45.99807000 2.91604400 -1.60795900
46.01855000 2.91604400 -1.59025800
46.03903000 2.46742200 -1.60795900
46.05951000 2.46742200 -1.60795900
46.07999000 1.57017700 -1.62559900
46.10047000 2.46742200 -1.59025800
46.12095000 2.91604400 -1.57261900
46.14143000 2.46742200 -1.60795900
46.16191000 3.36466600 -1.59025800
46.18239000 2.46742200 -1.59025800
46.20287000 2.46742200 -1.60795900
46.22335000 1.57017700 -1.62559900
46.24383000 2.46742200 -1.60795900
46.26431000 1.57017700 -1.60795900
46.28479000 2.91604400 -1.59025800
46.30527000 2.91604400 -1.57261900
46.32575000 2.46742200 -1.59025800
46.34623000 2.91604400 -1.59025800
46.36671000 2.46742200 -1.59025800
46.38719000 2.46742200 -1.60795900
46.40767000 2.01879900 -1.60795900
46.42815000 2.46742200 -1.59025800
46.44863000 2.91604400 -1.55497900
46.46911000 2.46742200 -1.59025800
46.48959000 3.36466600 -1.57261900
46.51007000 2.91604400 -1.59025800
46.53055000 2.91604400 -1.59025800
46.55103000 2.46742200 -1.59025800
46.57151000 2.46742200 -1.60795900
46.59200000 1.57017700 -1.60795900
46.61247000 2.46742200 -1.59025800
46.63295000 2.91604400 -1.55497900
46.65343000 2.46742200 -1.59025800
46.67391000 3.36466600 -1.57261900
46.69439000 2.46742200 -1.59025800
46.71487000 2.46742200 -1.60795900
46.73535000 1.57017700 -1.62559900
46.75583000 2.46742200 -1.59025800
46.77631000 1.57017700 -1.59025800
46.79679000 2.91604400 -1.59025800
46.81727000 3.36466600 -1.55497900
46.83775000 2.46742200 -1.59025800
46.85823000 2.91604400 -1.57261900
46.87871000 2.91604400 1.58720700
46.89919000 2.46742200 1.58720700
46.91967000 1.57017700 1.56956700
46.94015000 2.91604400 1.58720700
46.96063000 9.19827800 1.62254700
46.98111000 8.74965700 1.60484600
47.00159000 8.74965700 1.62254700
47.02207000 8.30103400 1.60484600
47.04255000 7.85088700 1.60484600
47.06303000 6.95364200 1.62254700
47.08351000 6.95364200 1.58720700
47.10399000 5.60777600 1.58720700
47.12447000 6.05639800 1.60484600
47.14495000 6.05639800 1.62254700
47.16543000 5.60777600 1.60484600
47.18591000 6.05639800 1.62254700
47.20639000 5.15915400 1.62254700
47.22687000 4.71053200 1.58720700
47.24735000 3.81328800 1.56956700
47.26783000 4.71053200 1.58720700
47.28831000 3.81328800 1.60484600
47.30879000 4.26191000 1.58720700
47.32927000 4.71053200 1.62254700
47.34975000 3.81328800 1.58720700
47.37023000 4.26191000 1.62254700
47.39071000 3.36466600 1.62254700
47.41119000 3.36466600 1.58720700
47.43167000 2.91604400 1.58720700
47.45215000 3.36466600 1.58720700
47.47263000 3.36466600 1.64018700
47.49311000 3.36466600 1.60484600
47.51359000 3.81328800 1.62254700
47.53407000 3.36466600 1.60484600
47.55455000 3.36466600 1.58720700
47.57503000 2.46742200 1.58720700
47.59551000 2.91604400 1.58720700
47.61599000 2.46742200 1.58720700
47.63647000 2.91604400 1.60484600
47.65695000 3.36466600 1.62254700
47.67743000 2.91604400 1.60484600
47.69791000 3.36466600 1.62254700
47.71839000 2.91604400 1.58720700
47.73887000 2.91604400 1.58720700
47.75935000 2.01879900 1.58720700
47.77983000 2.91604400 1.58720700
47.80031000 2.91604400 1.62254700
47.82079000 2.91604400 1.58720700
47.84127000 3.36466600 1.62254700
47.86175000 2.91604400 1.58720700
47.88223000 2.91604400 1.58720700
47.90271000 2.91604400 1.58720700
47.92319000 2.46742200 1.58720700
47.94367000 1.57017700 1.58720700
47.96415000 2.46742200 1.58720700
47.98463000 3.36466600 1.62254700
48.00511000 2.91604400 1.58720700
48.02559000 3.36466600 1.60484600
48.04607000 2.46742200 1.58720700
48.06655000 2.46742200 1.56956700
48.08703000 1.57017700 1.55192700
48.10751000 2.46742200 -1.59025800
48.12799000 1.57017700 -1.60795900
48.14847000 2.46742200 -1.60795900
48.16895000 3.36466600 -1.57261900
48.18943000 2.46742200 -1.60795900
48.20991000 2.91604400 -1.59025800
48.23039000 2.91604400 -1.60795900
48.25087000 2.46742200 -1.60795900
48.27135000 1.57017700 -1.62559900
48.29183000 2.46742200 -1.59025800
48.31231000 2.91604400 -1.57261900
48.33279000 2.46742200 -1.60795900
48.35328000 3.36466600 -1.57261900
48.37375000 2.91604400 -1.60795900
48.39423000 2.91604400 -1.60795900
48.41471000 2.91604400 -1.59025800
48.43519000 2.46742200 -1.60795900
48.45567000 1.57017700 -1.60795900
48.47615000 2.46742200 -1.60795900
48.49663000 2.91604400 -1.57261900
48.51711000 2.91604400 -1.59025800
48.53759000 3.36466600 -1.59025800
48.55807000 2.46742200 -1.60795900
48.57855000 2.91604400 -1.60795900
48.59903000 1.57017700 -1.62559900
48.61951000 2.46742200 -1.59025800
48.63999000 2.46742200 -1.60795900
48.66047000 2.46742200 -1.60795900
48.68095000 3.36466600 -1.57261900
48.70143000 2.91604400 -1.60795900
48.72191000 2.91604400 -1.59025800
48.74239000 2.46742200 -1.59025800
48.76287000 2.46742200 -1.60795900
48.78335000 1.57017700 -1.60795900
48.80383000 2.91604400 -1.59025800
48.82431000 2.91604400 -1.55497900
48.84479000 2.91604400 -1.59025800
48.86527000 3.36466600 -1.59025800
48.88575000 2.91604400 -1.59025800
48.90623000 2.91604400 -1.60795900
48.92671000 2.46742200 -1.60795900
48.94719000 2.46742200 -1.60795900
48.96767000 1.57017700 -1.59025800
48.98815000 2.91604400 -1.59025800
49.00863000 2.91604400 -1.57261900
49.02911000 2.91604400 -1.59025800
49.04959000 3.36466600 -1.57261900
49.07007000 2.46742200 -1.59025800
49.09055000 2.46742200 -1.60795900
49.11103000 2.01879900 -1.60795900
49.13151000 2.46742200 -1.59025800
49.15199000 2.91604400 -1.55497900
49.17247000 2.91604400 -1.59025800
49.19295000 3.36466600 -1.57261900
49.21343000 2.91604400 -1.59025800
49.23391000 2.91604400 -1.59025800
49.25439000 2.91604400 -1.57261900
49.27487000 2.46742200 -1.59025800
49.29535000 2.01879900 -1.59025800
49.31583000 2.91604400 -1.59025800
49.33631000 3.36466600 1.58720700
49.35679000 2.91604400 1.58720700
49.37727000 3.36466600 1.60484600
49.39775000 2.46742200 1.58720700
49.41823000 2.91604400 1.58720700
49.43871000 15.03189000 1.56956700
49.45919000 15.03189000 1.58720700
49.47967000 13.23588000 1.58720700
49.50015000 12.78726000 1.60484600
49.52063000 12.78726000 1.62254700
49.54111000 11.44139000 1.60484600
49.56159000 10.99277000 1.62254700
49.58207000 9.64690000 1.58720700
49.60255000 9.19827800 1.58720700
49.62303000 8.30103400 1.58720700
49.64351000 8.30103400 1.58720700
49.66399000 8.30103400 1.62254700
49.68447000 7.40226500 1.60484600
49.70495000 7.85088700 1.62254700
49.72543000 6.50502000 1.58720700
49.74591000 6.95364200 1.58720700
49.76639000 6.05639800 1.60484600
49.78687000 6.05639800 1.58720700
49.80735000 5.15915400 1.58720700
49.82783000 5.60777600 1.62254700
49.84831000 5.15915400 1.62254700
49.86879000 4.71053200 1.60484600
49.88927000 5.15915400 1.62254700
49.90975000 4.26191000 1.60484600
49.93023000 4.26191000 1.58720700
49.95071000 3.36466600 1.56956700
49.97119000 3.81328800 1.60484600
49.99167000 3.36466600 1.60484600
50.01215000 3.36466600 1.60484600
50.03263000 4.71053200 1.62254700
50.05311000 3.81328800 1.60484600
50.07359000 4.26191000 1.62254700
