" File: Documents and Settings\ramantut\Desktop\
" SCOPE->  Wave:531.87nm  Pix:668  Val:15312.540  Time:60000ms  Avg:1  Sm:1  Sg:0  Tc:off  Xt:3  Ch:1 
498.11  1.1461E+002
498.16  1.0961E+002
498.21  1.2227E+002
498.26  1.2894E+002
498.31  1.1794E+002
498.36  1.0294E+002
498.41  1.0194E+002
498.46  9.7940E+001
498.51  9.8607E+001
498.56  1.0094E+002
498.62  8.1273E+001
498.67  7.0607E+001
498.72  1.0161E+002
498.77  1.1694E+002
498.82  1.1194E+002
498.87  5.3940E+001
498.92  2.2940E+001
498.97  4.6940E+001
499.02  6.1273E+001
499.07  8.1940E+001
499.12  7.8940E+001
499.17  6.4607E+001
499.22  6.6607E+001
499.27  7.6940E+001
499.32  8.5607E+001
499.37  9.1940E+001
499.42  4.5940E+001
499.47  6.4607E+001
499.52  6.8273E+001
499.58  7.6607E+001
499.63  9.9940E+001
499.68  1.0494E+002
499.73  9.5007E+001
499.78  9.1207E+001
499.83  8.4540E+001
499.88  7.3140E+001
499.93  6.6673E+001
499.98  5.9607E+001
500.03  5.2740E+001
500.08  4.9540E+001
500.13  4.4140E+001
500.18  3.4407E+001
500.23  3.7273E+001
500.28  4.5540E+001
500.33  5.4207E+001
500.38  6.6806E+001
500.43  7.4473E+001
500.49  6.9473E+001
500.54  6.2007E+001
500.59  5.7007E+001
500.64  5.9540E+001
500.69  7.1140E+001
500.74  8.5807E+001
500.79  1.0074E+002
500.84  1.0961E+002
500.89  1.1561E+002
500.94  1.1507E+002
500.99  1.1681E+002
501.04  1.1214E+002
501.09  1.1054E+002
501.14  1.1127E+002
501.19  1.0807E+002
501.24  9.9607E+001
501.29  9.9807E+001
501.34  9.9940E+001
501.39  9.6607E+001
501.45  9.7273E+001
501.50  9.8273E+001
501.55  9.3540E+001
501.60  9.4540E+001
501.65  1.0114E+002
501.70  1.1007E+002
501.75  1.1974E+002
501.80  1.2314E+002
501.85  1.0361E+002
501.90  8.1407E+001
501.95  7.2140E+001
502.00  6.7607E+001
502.05  6.9407E+001
502.10  8.5940E+001
502.15  1.0387E+002
502.20  1.0627E+002
502.25  1.0447E+002
502.30  1.0081E+002
502.36  1.0161E+002
502.41  9.3607E+001
502.46  8.6673E+001
502.51  8.8473E+001
502.56  9.0073E+001
502.61  9.5207E+001
502.66  1.0554E+002
502.71  1.0847E+002
502.76  1.0347E+002
502.81  1.0727E+002
502.86  1.0541E+002
502.91  1.0574E+002
502.96  1.1147E+002
503.01  1.1727E+002
503.06  1.1381E+002
503.11  1.0774E+002
503.16  9.5140E+001
503.21  9.2540E+001
503.26  9.6140E+001
503.32  1.0321E+002
503.37  1.1174E+002
503.42  1.2354E+002
503.47  1.3001E+002
503.52  1.2587E+002
503.57  1.1994E+002
503.62  1.1167E+002
503.67  1.0447E+002
503.72  1.0001E+002
503.77  9.8073E+001
503.82  1.0161E+002
503.87  1.0621E+002
503.92  1.0741E+002
503.97  1.0634E+002
504.02  1.1641E+002
504.07  1.2301E+002
504.12  1.3454E+002
504.17  1.5187E+002
504.23  1.5881E+002
504.28  1.5254E+002
504.33  1.4814E+002
504.38  1.3541E+002
504.43  1.1527E+002
504.48  1.0541E+002
504.53  1.0127E+002
504.58  8.9606E+001
504.63  9.3073E+001
504.68  9.8873E+001
504.73  1.0467E+002
504.78  1.0854E+002
504.83  1.1567E+002
504.88  1.1861E+002
504.93  1.1934E+002
504.98  1.1494E+002
505.03  1.1601E+002
505.08  1.1614E+002
505.14  1.0694E+002
505.19  1.0474E+002
505.24  1.0494E+002
505.29  1.0401E+002
505.34  1.0754E+002
505.39  1.0887E+002
505.44  1.0667E+002
505.49  1.1394E+002
505.54  1.1867E+002
505.59  1.1701E+002
505.64  1.1687E+002
505.69  1.1481E+002
505.74  1.0714E+002
505.79  9.9473E+001
505.84  9.4273E+001
505.89  9.3607E+001
505.94  8.5206E+001
505.99  7.1540E+001
506.05  6.7673E+001
506.10  6.5806E+001
506.15  6.7807E+001
506.20  7.9540E+001
506.25  9.7340E+001
506.30  1.0507E+002
506.35  1.1187E+002
506.40  1.1461E+002
506.45  1.1834E+002
506.50  1.2187E+002
506.55  1.2507E+002
506.60  1.2647E+002
506.65  1.2467E+002
506.70  1.2794E+002
506.75  1.2267E+002
506.80  1.0441E+002
506.85  8.5340E+001
506.90  8.1273E+001
506.95  8.1540E+001
507.01  8.9940E+001
507.06  1.0781E+002
507.11  1.2494E+002
507.16  1.2574E+002
507.21  9.6406E+001
507.26  6.2606E+001
507.31  5.3674E+001
507.36  5.5340E+001
507.41  6.1407E+001
507.46  9.0940E+001
507.51  1.1774E+002
507.56  1.2014E+002
507.61  1.1847E+002
507.66  1.1794E+002
507.71  1.1361E+002
507.76  1.0874E+002
507.81  1.0481E+002
507.86  1.0894E+002
507.92  1.0447E+002
507.97  9.3206E+001
508.02  9.0007E+001
508.07  9.8073E+001
508.12  1.0487E+002
508.17  1.1541E+002
508.22  1.3594E+002
508.27  1.4954E+002
508.32  1.5634E+002
508.37  1.4687E+002
508.42  1.3481E+002
508.47  1.1721E+002
508.52  1.0341E+002
508.57  8.9273E+001
508.62  7.9740E+001
508.67  8.2540E+001
508.72  8.9207E+001
508.77  9.0007E+001
508.83  9.0873E+001
508.88  8.8473E+001
508.93  7.7340E+001
508.98  7.0473E+001
509.03  7.6873E+001
509.08  7.9806E+001
509.13  8.5273E+001
509.18  8.8540E+001
509.23  8.9607E+001
509.28  9.4007E+001
509.33  1.0254E+002
509.38  1.1241E+002
509.43  1.2567E+002
509.48  1.3434E+002
509.53  1.3707E+002
509.58  1.3367E+002
509.63  1.2814E+002
509.68  1.2167E+002
509.74  1.2034E+002
509.79  1.1827E+002
509.84  1.1947E+002
509.89  1.0681E+002
509.94  9.9473E+001
509.99  1.0267E+002
510.04  9.4940E+001
510.09  8.0273E+001
510.14  8.5807E+001
510.19  9.1140E+001
510.24  8.3473E+001
510.29  8.1806E+001
510.34  8.9540E+001
510.39  9.4873E+001
510.44  1.0074E+002
510.49  1.1081E+002
510.54  1.1821E+002
510.59  1.1954E+002
510.65  1.1741E+002
510.70  1.0754E+002
510.75  9.5940E+001
510.80  9.2873E+001
510.85  8.8607E+001
510.90  9.0340E+001
510.95  1.0701E+002
511.00  1.2341E+002
511.05  1.3341E+002
511.10  1.4047E+002
511.15  1.3681E+002
511.20  1.2767E+002
511.25  1.2647E+002
511.30  1.2494E+002
511.35  1.2294E+002
511.40  1.2967E+002
511.45  1.3421E+002
511.50  1.2427E+002
511.56  1.1914E+002
511.61  1.2774E+002
511.66  1.3607E+002
511.71  1.3574E+002
511.76  1.3914E+002
511.81  1.4467E+002
511.86  1.4147E+002
511.91  1.3747E+002
511.96  1.4034E+002
512.01  1.4281E+002
512.06  1.3787E+002
512.11  1.3427E+002
512.16  1.2367E+002
512.21  1.1541E+002
512.26  1.1267E+002
512.31  1.1121E+002
512.36  1.0894E+002
512.41  1.1347E+002
512.47  1.1781E+002
512.52  1.0614E+002
512.57  9.2873E+001
512.62  9.4873E+001
512.67  1.0874E+002
512.72  1.1587E+002
512.77  1.2687E+002
512.82  1.3727E+002
512.87  1.3054E+002
512.92  1.0987E+002
512.97  8.9073E+001
513.02  7.8673E+001
513.07  6.7607E+001
513.12  6.4873E+001
513.17  6.8673E+001
513.22  8.3740E+001
513.27  9.8607E+001
513.32  1.1314E+002
513.38  1.2121E+002
513.43  1.2307E+002
513.48  1.1574E+002
513.53  1.0554E+002
513.58  1.0894E+002
513.63  1.1187E+002
513.68  1.1507E+002
513.73  1.2307E+002
513.78  1.2361E+002
513.83  1.0681E+002
513.88  1.0134E+002
513.93  1.0501E+002
513.98  1.0881E+002
514.03  1.1927E+002
514.08  1.3054E+002
514.13  1.3707E+002
514.18  1.3594E+002
514.23  1.2654E+002
514.29  1.1774E+002
514.34  1.1341E+002
514.39  1.0727E+002
514.44  1.0414E+002
514.49  1.0314E+002
514.54  1.0947E+002
514.59  1.2327E+002
514.64  1.2927E+002
514.69  1.3021E+002
514.74  1.3674E+002
514.79  1.1847E+002
514.84  8.4806E+001
514.89  7.7340E+001
514.94  7.3006E+001
514.99  7.0473E+001
515.04  9.6940E+001
515.09  1.3367E+002
515.14  1.4461E+002
515.20  1.5401E+002
515.25  1.6081E+002
515.30  1.5394E+002
515.35  1.4674E+002
515.40  1.4207E+002
515.45  1.2621E+002
515.50  1.0881E+002
515.55  9.5207E+001
515.60  8.8140E+001
515.65  8.4007E+001
515.70  9.7940E+001
515.75  1.1461E+002
515.80  1.2627E+002
515.85  1.3321E+002
515.90  1.3767E+002
515.95  1.3574E+002
516.00  1.3394E+002
516.05  1.3941E+002
516.11  1.4854E+002
516.16  1.5287E+002
516.21  1.5487E+002
516.26  1.4887E+002
516.31  1.3561E+002
516.36  1.2381E+002
516.41  1.2374E+002
516.46  1.1814E+002
516.51  1.0854E+002
516.56  1.0447E+002
516.61  9.6740E+001
516.66  8.5940E+001
516.71  9.2940E+001
516.76  1.0914E+002
516.81  1.1941E+002
516.86  1.2634E+002
516.91  1.2761E+002
516.96  1.2501E+002
517.02  1.2007E+002
517.07  1.1881E+002
517.12  1.1361E+002
517.17  1.0767E+002
517.22  1.0581E+002
517.27  1.0574E+002
517.32  1.0914E+002
517.37  1.1607E+002
517.42  1.2274E+002
517.47  1.2041E+002
517.52  1.2614E+002
517.57  1.2994E+002
517.62  1.4187E+002
517.67  1.5447E+002
517.72  1.6827E+002
517.77  1.7094E+002
517.82  1.6661E+002
517.87  1.5287E+002
517.93  1.4427E+002
517.98  1.4134E+002
518.03  1.4061E+002
518.08  1.4521E+002
518.13  1.4734E+002
518.18  1.4887E+002
518.23  1.4267E+002
518.28  1.3974E+002
518.33  1.3314E+002
518.38  1.3127E+002
518.43  1.3187E+002
518.48  1.3981E+002
518.53  1.4341E+002
518.58  1.4667E+002
518.63  1.3814E+002
518.68  1.3327E+002
518.73  1.3341E+002
518.78  1.3434E+002
518.84  1.3527E+002
518.89  1.5347E+002
518.94  1.6307E+002
518.99  1.5927E+002
519.04  1.5741E+002
519.09  1.6521E+002
519.14  1.6634E+002
519.19  1.6774E+002
519.24  1.7161E+002
519.29  1.7174E+002
519.34  1.6247E+002
519.39  1.5567E+002
519.44  1.5727E+002
519.49  1.5614E+002
519.54  1.6187E+002
519.59  1.7121E+002
519.64  1.7474E+002
519.69  1.7161E+002
519.75  1.7201E+002
519.80  1.6667E+002
519.85  1.5961E+002
519.90  1.5314E+002
519.95  1.5047E+002
520.00  1.4901E+002
520.05  1.5147E+002
520.10  1.5867E+002
520.15  1.7121E+002
520.20  1.8481E+002
520.25  1.8934E+002
520.30  1.9487E+002
520.35  1.9847E+002
520.40  1.9627E+002
520.45  1.8707E+002
520.50  1.7901E+002
520.55  1.6381E+002
520.60  1.5487E+002
520.65  1.4521E+002
520.71  1.3974E+002
520.76  1.4181E+002
520.81  1.5021E+002
520.86  1.5347E+002
520.91  1.5947E+002
520.96  1.6174E+002
521.01  1.6487E+002
521.06  1.6894E+002
521.11  1.6581E+002
521.16  1.6441E+002
521.21  1.6721E+002
521.26  1.6514E+002
521.31  1.6661E+002
521.36  1.7721E+002
521.41  1.8674E+002
521.46  1.9354E+002
521.51  2.0034E+002
521.56  1.9341E+002
521.62  1.8414E+002
521.67  1.7454E+002
521.72  1.6414E+002
521.77  1.5774E+002
521.82  1.6594E+002
521.87  1.7261E+002
521.92  1.8114E+002
521.97  1.8467E+002
522.02  1.7767E+002
522.07  1.6227E+002
522.12  1.5661E+002
522.17  1.5814E+002
522.22  1.6514E+002
522.27  1.8081E+002
522.32  1.9594E+002
522.37  2.0521E+002
522.42  2.1261E+002
522.47  2.2041E+002
522.53  2.2827E+002
522.58  2.3594E+002
522.63  2.2981E+002
522.68  2.2927E+002
522.73  2.3494E+002
522.78  2.4181E+002
522.83  2.5574E+002
522.88  2.9527E+002
522.93  3.3867E+002
522.98  3.7541E+002
523.03  3.9961E+002
523.08  4.0847E+002
523.13  3.8801E+002
523.18  3.4474E+002
523.23  3.0227E+002
523.28  2.7694E+002
523.33  2.6094E+002
523.38  2.5134E+002
523.43  2.4461E+002
523.49  2.3134E+002
523.54  2.1327E+002
523.59  1.9967E+002
523.64  1.9801E+002
523.69  1.9867E+002
523.74  2.0281E+002
523.79  2.0881E+002
523.84  2.1754E+002
523.89  2.2234E+002
523.94  2.2361E+002
523.99  2.2621E+002
524.04  2.2107E+002
524.09  2.1181E+002
524.14  1.9627E+002
524.19  2.0047E+002
524.24  2.0474E+002
524.29  2.1254E+002
524.34  2.1574E+002
524.39  2.2247E+002
524.45  2.1861E+002
524.50  2.1927E+002
524.55  2.1794E+002
524.60  2.1414E+002
524.65  2.1241E+002
524.70  2.1361E+002
524.75  2.1694E+002
524.80  2.2294E+002
524.85  2.3161E+002
524.90  2.3934E+002
524.95  2.4087E+002
525.00  2.3174E+002
525.05  2.2407E+002
525.10  2.1707E+002
525.15  2.1461E+002
525.20  2.1821E+002
525.25  2.2587E+002
525.30  2.3194E+002
525.36  2.4134E+002
525.41  2.3607E+002
525.46  2.2094E+002
525.51  2.1261E+002
525.56  2.0954E+002
525.61  2.0661E+002
525.66  2.1347E+002
525.71  2.2607E+002
525.76  2.3367E+002
525.81  2.3521E+002
525.86  2.2654E+002
525.91  2.1981E+002
525.96  2.2254E+002
526.01  2.2634E+002
526.06  2.2727E+002
526.11  2.3567E+002
526.16  2.4374E+002
526.21  2.4947E+002
526.26  2.5427E+002
526.32  2.6494E+002
526.37  2.6747E+002
526.42  2.6867E+002
526.47  2.6667E+002
526.52  2.6361E+002
526.57  2.5574E+002
526.62  2.5294E+002
526.67  2.5021E+002
526.72  2.5894E+002
526.77  2.8061E+002
526.82  3.0621E+002
526.87  3.3234E+002
526.92  3.5421E+002
526.97  3.6247E+002
527.02  3.5707E+002
527.07  3.4901E+002
527.12  3.4681E+002
527.17  3.5027E+002
527.22  3.4321E+002
527.28  3.3901E+002
527.33  3.4327E+002
527.38  3.4247E+002
527.43  3.3594E+002
527.48  3.4154E+002
527.53  3.4461E+002
527.58  3.4394E+002
527.63  3.4787E+002
527.68  3.4914E+002
527.73  3.4681E+002
527.78  3.5701E+002
527.83  3.6927E+002
527.88  3.8714E+002
527.93  4.1467E+002
527.98  4.4874E+002
528.03  4.7347E+002
528.08  4.9241E+002
528.13  4.9514E+002
528.18  4.8974E+002
528.24  4.8241E+002
528.29  4.8021E+002
528.34  4.8707E+002
528.39  5.0741E+002
528.44  5.3474E+002
528.49  5.5767E+002
528.54  5.7107E+002
528.59  5.7581E+002
528.64  5.7661E+002
528.69  5.6567E+002
528.74  5.5327E+002
528.79  5.5447E+002
528.84  5.6747E+002
528.89  5.8674E+002
528.94  6.1614E+002
528.99  6.4767E+002
529.04  6.8341E+002
529.09  7.1334E+002
529.14  7.3754E+002
529.19  7.7221E+002
529.25  8.1401E+002
529.30  8.4621E+002
529.35  8.7814E+002
529.40  9.0981E+002
529.45  9.4187E+002
529.50  9.5841E+002
529.55  9.7954E+002
529.60  1.0095E+003
529.65  1.0470E+003
529.70  1.0818E+003
529.75  1.1349E+003
529.80  1.2007E+003
529.85  1.2687E+003
529.90  1.3513E+003
529.95  1.4714E+003
530.00  1.6285E+003
530.05  1.7822E+003
530.10  1.9393E+003
530.15  2.0933E+003
530.21  2.1831E+003
530.26  2.2175E+003
530.31  2.2292E+003
530.36  2.2393E+003
530.41  2.2361E+003
530.46  2.3099E+003
530.51  2.4947E+003
530.56  2.8220E+003
530.61  3.2280E+003
530.66  3.6342E+003
530.71  3.9741E+003
530.76  4.2209E+003
530.81  4.3545E+003
530.86  4.4329E+003
530.91  4.5673E+003
530.96  4.7862E+003
531.01  5.0794E+003
531.06  5.4803E+003
531.11  6.0131E+003
531.16  6.6763E+003
531.22  7.4761E+003
531.27  8.5583E+003
531.32  9.9055E+003
531.37  1.1341E+004
531.42  1.2714E+004
531.47  1.3698E+004
531.52  1.4312E+004
531.57  1.4705E+004
531.62  1.4955E+004
531.67  1.5118E+004
531.72  1.5458E+004
531.77  1.5660E+004
531.82  1.5540E+004
531.87  1.5313E+004
531.92  1.4994E+004
531.97  1.4604E+004
532.02  1.4500E+004
532.07  1.4704E+004
532.12  1.4964E+004
532.17  1.5287E+004
532.23  1.5673E+004
532.28  1.5921E+004
532.33  1.6011E+004
532.38  1.6023E+004
532.43  1.5907E+004
532.48  1.5815E+004
532.53  1.5146E+004
532.58  1.4119E+004
532.63  1.2818E+004
532.68  1.1425E+004
532.73  9.7829E+003
532.78  8.6059E+003
532.83  7.6674E+003
532.88  6.9013E+003
532.93  6.2247E+003
532.98  5.6701E+003
533.03  5.1355E+003
533.08  4.6667E+003
533.13  4.2625E+003
533.18  3.9261E+003
533.24  3.6542E+003
533.29  3.4027E+003
533.34  3.1409E+003
533.39  2.8969E+003
533.44  2.6747E+003
533.49  2.4677E+003
533.54  2.3033E+003
533.59  2.1730E+003
533.64  2.0471E+003
533.69  1.9117E+003
533.74  1.7859E+003
533.79  1.6582E+003
533.84  1.5440E+003
533.89  1.4551E+003
533.94  1.4033E+003
533.99  1.3658E+003
534.04  1.3317E+003
534.09  1.2845E+003
534.14  1.2289E+003
534.19  1.1685E+003
534.25  1.1206E+003
534.30  1.0780E+003
534.35  1.0312E+003
534.40  9.8194E+002
534.45  9.3321E+002
534.50  8.7454E+002
534.55  8.2814E+002
534.60  8.1287E+002
534.65  7.9914E+002
534.70  7.8021E+002
534.75  7.6227E+002
534.80  7.4174E+002
534.85  7.1454E+002
534.90  6.9394E+002
534.95  6.7221E+002
535.00  6.4814E+002
535.05  6.2727E+002
535.10  6.0747E+002
535.15  5.8574E+002
535.20  5.7061E+002
535.25  5.6621E+002
535.31  5.5587E+002
535.36  5.4221E+002
535.41  5.3827E+002
535.46  5.3667E+002
535.51  5.3667E+002
535.56  5.4007E+002
535.61  5.3674E+002
535.66  5.2447E+002
535.71  5.0354E+002
535.76  4.7421E+002
535.81  4.5707E+002
535.86  4.3587E+002
535.91  4.1547E+002
535.96  4.0841E+002
536.01  3.9881E+002
536.06  3.7934E+002
536.11  3.7001E+002
536.16  3.6327E+002
536.21  3.5327E+002
536.26  3.4454E+002
536.31  3.3361E+002
536.37  3.3307E+002
536.42  3.2647E+002
536.47  3.1794E+002
536.52  3.1454E+002
536.57  3.2187E+002
536.62  3.2307E+002
536.67  3.3081E+002
536.72  3.2974E+002
536.77  3.2287E+002
536.82  3.1654E+002
536.87  3.0974E+002
536.92  2.9947E+002
536.97  2.9987E+002
537.02  3.0807E+002
537.07  3.1074E+002
537.12  3.1967E+002
537.17  3.3154E+002
537.22  3.4327E+002
537.27  3.4534E+002
537.32  3.4194E+002
537.37  3.3741E+002
537.43  3.3374E+002
537.48  3.3174E+002
537.53  3.4294E+002
537.58  3.5907E+002
537.63  3.6641E+002
537.68  3.7367E+002
537.73  3.8394E+002
537.78  3.8594E+002
537.83  3.8507E+002
537.88  3.8307E+002
537.93  3.7987E+002
537.98  3.6734E+002
538.03  3.6561E+002
538.08  3.6387E+002
538.13  3.6341E+002
538.18  3.6094E+002
538.23  3.5214E+002
538.28  3.3274E+002
538.33  3.2494E+002
538.38  3.2794E+002
538.43  3.2894E+002
538.49  3.3807E+002
538.54  3.5887E+002
538.59  3.6014E+002
538.64  3.4367E+002
538.69  3.3534E+002
538.74  3.3307E+002
538.79  3.1501E+002
538.84  3.0774E+002
538.89  3.1334E+002
538.94  3.1654E+002
538.99  3.1121E+002
539.04  3.1114E+002
539.09  3.1174E+002
539.14  3.1754E+002
539.19  3.2387E+002
539.24  3.3654E+002
539.29  3.5194E+002
539.34  3.6041E+002
539.39  3.6067E+002
539.44  3.5354E+002
539.49  3.4347E+002
539.54  3.3227E+002
539.60  3.2647E+002
539.65  3.2594E+002
539.70  3.2721E+002
539.75  3.3014E+002
539.80  3.3387E+002
539.85  3.3614E+002
539.90  3.3194E+002
539.95  3.3174E+002
540.00  3.2154E+002
540.05  3.0594E+002
540.10  2.9281E+002
540.15  2.8314E+002
540.20  2.7107E+002
540.25  2.7561E+002
540.30  2.8594E+002
540.35  2.9627E+002
540.40  3.0361E+002
540.45  3.1474E+002
540.50  3.1687E+002
540.55  3.1774E+002
540.60  3.2034E+002
540.65  3.3021E+002
540.71  3.3794E+002
540.76  3.4707E+002
540.81  3.6334E+002
540.86  3.8247E+002
540.91  4.0234E+002
540.96  4.4274E+002
541.01  5.0314E+002
541.06  5.7561E+002
541.11  6.6407E+002
541.16  7.7567E+002
541.21  8.7321E+002
541.26  9.3687E+002
541.31  9.5354E+002
541.36  9.1987E+002
541.41  8.3367E+002
541.46  7.2874E+002
541.51  6.2787E+002
541.56  5.4721E+002
541.61  4.8761E+002
541.66  4.5641E+002
541.71  4.3561E+002
541.76  4.1401E+002
541.81  3.9981E+002
541.87  3.8567E+002
541.92  3.6661E+002
541.97  3.4667E+002
542.02  3.4187E+002
542.07  3.3587E+002
542.12  3.3627E+002
542.17  3.3734E+002
542.22  3.3114E+002
542.27  3.1987E+002
542.32  3.0861E+002
542.37  2.9807E+002
542.42  2.8541E+002
542.47  2.7467E+002
542.52  2.6087E+002
542.57  2.5467E+002
542.62  2.5507E+002
542.67  2.4421E+002
542.72  1.6381E+002
542.77  7.3873E+001
542.82  3.7273E+001
542.87  1.9873E+001
542.92  2.8007E+001
542.97  1.1394E+002
543.03  2.0854E+002
543.08  2.3867E+002
543.13  2.3814E+002
543.18  2.3227E+002
543.23  2.3767E+002
543.28  2.5127E+002
543.33  2.6687E+002
543.38  2.7801E+002
543.43  2.4154E+002
543.48  1.8674E+002
543.53  1.5701E+002
543.58  1.2454E+002
543.63  9.4806E+001
543.68  1.2214E+002
543.73  1.6721E+002
543.78  1.8521E+002
543.83  2.1354E+002
543.88  2.3834E+002
543.93  2.4194E+002
543.98  2.3867E+002
544.03  2.3541E+002
544.08  2.3434E+002
544.13  2.4847E+002
544.18  2.6501E+002
544.24  2.5481E+002
544.29  2.1781E+002
544.34  1.9854E+002
544.39  1.8694E+002
544.44  1.8267E+002
544.49  2.0814E+002
544.54  2.5841E+002
544.59  2.8414E+002
544.64  2.9947E+002
544.69  3.0481E+002
544.74  2.9961E+002
544.79  2.9541E+002
544.84  2.9381E+002
544.89  2.8041E+002
544.94  2.7021E+002
544.99  2.7247E+002
545.04  2.7027E+002
545.09  2.5614E+002
545.14  2.4847E+002
545.19  2.4727E+002
545.24  2.3454E+002
545.29  2.2514E+002
545.34  2.2934E+002
545.39  2.3701E+002
545.44  2.3281E+002
545.50  2.3901E+002
545.55  2.4714E+002
545.60  2.5507E+002
545.65  2.5914E+002
545.70  2.6854E+002
545.75  2.6494E+002
545.80  2.5367E+002
545.85  2.3854E+002
545.90  2.2541E+002
545.95  2.1567E+002
546.00  2.0894E+002
546.05  2.0421E+002
546.10  2.0047E+002
546.15  1.9661E+002
546.20  1.9581E+002
546.25  2.0401E+002
546.30  2.1861E+002
546.35  2.2541E+002
546.40  2.2774E+002
546.45  2.3007E+002
546.50  2.3007E+002
546.55  2.2774E+002
546.60  2.3087E+002
546.65  2.4121E+002
546.70  2.5107E+002
546.76  2.4521E+002
546.81  2.3687E+002
546.86  2.3614E+002
546.91  2.3834E+002
546.96  2.3714E+002
547.01  2.3914E+002
547.06  2.3414E+002
547.11  2.2787E+002
547.16  2.1967E+002
547.21  2.1001E+002
547.26  2.0294E+002
547.31  2.0487E+002
547.36  1.9381E+002
547.41  1.7947E+002
547.46  1.7101E+002
547.51  1.7034E+002
547.56  1.7067E+002
547.61  1.7194E+002
547.66  1.7261E+002
547.71  1.6967E+002
547.76  1.5747E+002
547.81  1.4507E+002
547.86  1.5027E+002
547.91  1.4647E+002
547.96  1.3654E+002
548.01  1.4007E+002
548.07  1.5054E+002
548.12  1.5254E+002
548.17  1.6307E+002
548.22  1.8387E+002
548.27  1.9941E+002
548.32  2.0721E+002
548.37  2.0934E+002
548.42  2.1621E+002
548.47  2.2141E+002
548.52  2.2201E+002
548.57  2.1881E+002
548.62  2.2467E+002
548.67  2.2947E+002
548.72  2.2147E+002
548.77  2.1181E+002
548.82  2.0801E+002
548.87  2.0107E+002
548.92  1.9434E+002
548.97  1.9727E+002
549.02  2.0347E+002
549.07  2.1261E+002
549.12  2.2027E+002
549.17  2.2241E+002
549.22  2.2301E+002
549.27  2.2227E+002
549.32  2.0687E+002
549.37  1.9254E+002
549.43  1.9054E+002
549.48  1.9261E+002
549.53  2.0121E+002
549.58  2.1014E+002
549.63  2.1047E+002
549.68  2.0574E+002
549.73  2.0234E+002
549.78  1.9347E+002
549.83  1.9367E+002
549.88  1.9727E+002
549.93  2.0467E+002
549.98  2.0807E+002
550.03  2.0534E+002
550.08  2.0227E+002
550.13  1.7721E+002
550.18  1.4034E+002
550.23  1.1774E+002
550.28  1.1121E+002
550.33  1.0774E+002
550.38  1.3161E+002
550.43  1.5594E+002
550.48  1.6394E+002
550.53  1.7261E+002
550.58  1.8627E+002
550.63  1.9641E+002
550.68  2.0894E+002
550.73  2.2401E+002
550.78  2.2701E+002
550.84  2.2467E+002
550.89  2.2867E+002
550.94  2.3814E+002
550.99  2.4934E+002
551.04  2.6534E+002
551.09  2.7361E+002
551.14  2.7447E+002
551.19  2.7387E+002
551.24  2.7234E+002
551.29  2.7254E+002
551.34  2.7547E+002
551.39  2.7287E+002
551.44  2.6267E+002
551.49  2.4447E+002
551.54  2.2241E+002
551.59  2.0394E+002
551.64  1.9254E+002
551.69  1.8734E+002
551.74  1.8894E+002
551.79  1.9227E+002
551.84  1.9207E+002
551.89  1.9081E+002
551.94  1.8094E+002
551.99  1.6474E+002
552.04  1.5514E+002
552.09  1.4647E+002
552.14  1.4227E+002
552.19  1.4807E+002
552.24  1.5154E+002
552.30  1.4947E+002
552.35  1.5147E+002
552.40  1.4981E+002
552.45  1.5001E+002
552.50  1.6487E+002
552.55  1.7761E+002
552.60  1.7974E+002
552.65  1.7687E+002
552.70  1.7087E+002
552.75  1.5907E+002
552.80  1.5081E+002
552.85  1.5094E+002
552.90  1.5607E+002
552.95  1.5767E+002
553.00  1.6254E+002
553.05  1.6034E+002
553.10  1.4961E+002
553.15  1.4467E+002
553.20  1.4801E+002
553.25  1.5034E+002
553.30  1.5527E+002
553.35  1.6414E+002
553.40  1.6381E+002
553.45  1.5814E+002
553.50  1.5161E+002
553.55  1.4461E+002
553.60  1.4901E+002
553.65  1.5361E+002
553.70  1.5574E+002
553.75  1.5367E+002
553.81  1.5567E+002
553.86  1.5247E+002
553.91  1.4674E+002
553.96  1.4261E+002
554.01  1.4247E+002
554.06  1.3867E+002
554.11  1.4267E+002
554.16  1.4801E+002
554.21  1.4767E+002
554.26  1.4447E+002
554.31  1.4147E+002
554.36  1.3121E+002
554.41  1.2921E+002
554.46  1.2654E+002
554.51  1.1787E+002
554.56  1.1367E+002
554.61  1.1107E+002
554.66  1.0667E+002
554.71  1.1214E+002
554.76  1.3207E+002
554.81  1.4981E+002
554.86  1.5687E+002
554.91  1.5614E+002
554.96  1.5307E+002
555.01  1.4154E+002
555.06  1.3261E+002
555.11  1.3354E+002
555.16  1.4021E+002
555.21  1.4194E+002
555.26  1.4301E+002
555.31  1.4114E+002
555.36  1.3761E+002
555.41  1.3327E+002
555.47  1.3274E+002
555.52  1.3761E+002
555.57  1.4087E+002
555.62  1.4327E+002
555.67  1.4661E+002
555.72  1.4967E+002
555.77  1.5414E+002
555.82  1.5454E+002
555.87  1.4661E+002
555.92  1.4074E+002
555.97  1.4174E+002
556.02  1.3847E+002
556.07  1.4007E+002
556.12  1.4487E+002
556.17  1.4361E+002
556.22  1.3514E+002
556.27  1.2627E+002
556.32  1.2154E+002
556.37  1.2174E+002
556.42  1.2781E+002
556.47  1.3261E+002
556.52  1.3127E+002
556.57  1.3314E+002
556.62  1.3741E+002
556.67  1.3621E+002
556.72  1.3401E+002
556.77  1.3161E+002
556.82  1.2301E+002
556.87  1.1807E+002
556.92  1.2087E+002
556.97  1.2227E+002
557.02  1.2674E+002
557.07  1.3067E+002
557.12  1.2894E+002
557.17  1.2247E+002
557.23  1.1747E+002
557.28  1.1421E+002
557.33  1.1147E+002
557.38  1.1127E+002
557.43  1.0887E+002
557.48  1.1301E+002
557.53  1.1774E+002
557.58  1.2067E+002
557.63  1.2421E+002
557.68  1.3487E+002
557.73  1.4167E+002
557.78  1.4254E+002
557.83  1.4014E+002
557.88  1.3421E+002
557.93  1.2514E+002
557.98  1.1867E+002
558.03  1.2334E+002
558.08  1.3294E+002
558.13  1.3747E+002
558.18  1.3961E+002
558.23  1.4154E+002
558.28  1.3594E+002
558.33  1.2427E+002
558.38  1.1241E+002
558.43  1.0314E+002
558.48  8.5806E+001
558.53  8.2473E+001
558.58  9.0807E+001
558.63  9.9873E+001
558.68  1.0221E+002
558.73  1.2001E+002
558.78  1.3274E+002
558.83  1.3467E+002
558.88  1.3867E+002
558.93  1.4321E+002
558.98  1.3934E+002
559.03  1.2367E+002
559.09  1.0367E+002
559.14  8.8873E+001
559.19  8.7740E+001
559.24  8.9740E+001
559.29  1.0574E+002
559.34  1.2787E+002
559.39  1.3341E+002
559.44  1.3434E+002
559.49  1.4094E+002
559.54  1.3374E+002
559.59  1.2954E+002
559.64  1.3434E+002
559.69  1.3447E+002
559.74  1.2661E+002
559.79  1.2187E+002
559.84  1.1741E+002
559.89  1.1901E+002
559.94  1.2534E+002
559.99  1.2754E+002
560.04  1.2301E+002
560.09  1.0227E+002
560.14  8.3073E+001
560.19  6.4206E+001
560.24  5.5206E+001
560.29  6.6674E+001
560.34  9.4140E+001
560.39  1.2174E+002
560.44  1.4341E+002
560.49  1.5314E+002
560.54  1.5401E+002
560.59  1.5087E+002
560.64  1.4134E+002
560.69  1.3801E+002
560.74  1.3894E+002
560.79  1.3501E+002
560.84  1.3127E+002
560.89  1.3027E+002
560.94  1.2547E+002
560.99  1.2407E+002
561.04  1.2214E+002
561.09  1.2607E+002
561.14  1.3027E+002
561.20  1.3294E+002
561.25  1.3554E+002
561.30  1.3834E+002
561.35  1.3687E+002
561.40  1.3261E+002
561.45  1.3161E+002
561.50  1.3161E+002
561.55  1.3241E+002
561.60  1.3114E+002
561.65  1.3674E+002
561.70  1.3834E+002
561.75  1.3181E+002
561.80  1.2147E+002
561.85  1.1327E+002
561.90  1.0714E+002
561.95  1.0687E+002
562.00  1.0821E+002
562.05  1.1281E+002
562.10  1.1994E+002
562.15  1.2107E+002
562.20  1.1801E+002
562.25  1.1934E+002
562.30  1.2654E+002
562.35  1.3541E+002
562.40  1.4007E+002
562.45  1.4281E+002
562.50  1.4174E+002
562.55  1.3954E+002
562.60  1.3967E+002
562.65  1.3641E+002
562.70  1.3361E+002
562.75  1.3421E+002
562.80  1.2621E+002
562.85  1.1307E+002
562.90  1.0841E+002
562.95  9.9806E+001
563.00  8.7940E+001
563.05  9.2140E+001
563.10  1.0461E+002
563.15  1.1374E+002
563.20  1.2821E+002
563.25  1.3761E+002
563.30  1.3854E+002
563.35  1.3554E+002
563.40  1.3654E+002
563.45  1.3127E+002
563.50  1.3134E+002
563.55  1.2974E+002
563.61  1.2794E+002
563.66  1.2347E+002
563.71  1.2954E+002
563.76  1.2414E+002
563.81  1.2194E+002
563.86  1.2794E+002
563.91  1.3114E+002
563.96  1.2194E+002
564.01  1.2134E+002
564.06  1.2154E+002
564.11  1.1474E+002
564.16  1.0881E+002
564.21  1.1661E+002
564.26  1.1814E+002
564.31  1.1087E+002
564.36  1.1047E+002
564.41  1.2061E+002
564.46  1.2181E+002
564.51  1.3307E+002
564.56  1.4174E+002
564.61  1.3834E+002
564.66  1.2254E+002
564.71  1.1314E+002
564.76  1.0934E+002
564.81  1.1741E+002
564.86  1.2841E+002
564.91  1.4454E+002
564.96  1.4454E+002
565.01  1.2847E+002
565.06  1.1701E+002
565.11  1.0874E+002
565.16  9.4873E+001
565.21  8.9607E+001
565.26  9.6673E+001
565.31  1.0181E+002
565.36  1.0407E+002
565.41  1.1214E+002
565.46  1.2507E+002
565.51  1.4007E+002
565.56  1.4747E+002
565.61  1.6007E+002
565.66  1.6761E+002
565.71  1.6974E+002
565.76  1.6701E+002
565.81  1.6054E+002
565.86  1.4681E+002
565.91  1.3914E+002
565.96  1.3681E+002
566.01  1.3867E+002
566.06  1.3927E+002
566.11  1.3941E+002
566.16  1.4167E+002
566.21  1.4167E+002
566.26  1.2881E+002
566.31  1.2187E+002
566.36  1.2067E+002
566.41  1.1334E+002
566.46  1.1034E+002
566.52  1.2327E+002
566.57  1.3514E+002
566.62  1.4041E+002
566.67  1.4641E+002
566.72  1.3974E+002
566.77  1.1241E+002
566.82  9.0740E+001
566.87  6.5673E+001
566.92  4.5073E+001
566.97  4.2273E+001
567.02  4.6340E+001
567.07  5.0940E+001
567.12  6.4873E+001
567.17  7.7206E+001
567.22  8.7807E+001
567.27  1.0981E+002
567.32  1.2387E+002
567.37  1.3181E+002
567.42  1.4327E+002
567.47  1.4227E+002
567.52  1.3854E+002
567.57  1.4261E+002
567.62  1.4634E+002
567.67  1.4281E+002
567.72  1.4767E+002
567.77  1.5161E+002
567.82  1.5381E+002
567.87  1.5747E+002
567.92  1.6554E+002
567.97  1.6634E+002
568.02  1.6294E+002
568.07  1.5394E+002
568.12  1.4141E+002
568.17  1.3481E+002
568.22  1.3447E+002
568.27  1.3201E+002
568.32  1.3127E+002
568.37  1.3874E+002
568.42  1.4341E+002
568.47  1.4527E+002
568.52  1.5041E+002
568.57  1.5401E+002
568.62  1.4874E+002
568.67  1.3754E+002
568.72  1.2667E+002
568.77  1.2667E+002
568.82  1.2294E+002
568.87  1.2414E+002
568.92  1.3054E+002
568.97  1.3687E+002
569.02  1.3327E+002
569.07  1.3014E+002
569.12  1.2634E+002
569.17  1.1954E+002
569.22  1.2034E+002
569.27  1.2341E+002
569.32  1.3067E+002
569.37  1.3701E+002
569.42  1.4094E+002
569.47  1.3934E+002
569.52  1.3614E+002
569.57  1.3121E+002
569.62  1.2727E+002
569.67  1.2821E+002
569.72  1.3547E+002
569.77  1.3607E+002
569.82  1.3987E+002
569.87  1.4401E+002
569.92  1.3827E+002
569.97  1.2107E+002
570.02  1.2107E+002
570.07  1.2187E+002
570.12  1.0347E+002
570.17  9.1940E+001
570.22  7.4806E+001
570.27  5.1807E+001
570.32  4.8607E+001
570.37  6.6407E+001
570.42  8.8007E+001
570.47  1.1981E+002
570.52  1.4207E+002
570.57  1.4214E+002
570.62  1.2821E+002
570.67  1.0814E+002
570.72  9.1873E+001
570.78  9.5007E+001
570.83  1.0027E+002
570.88  1.1227E+002
570.93  1.2254E+002
570.98  1.3381E+002
571.03  1.3241E+002
571.08  1.2487E+002
571.13  1.2087E+002
571.18  1.2014E+002
571.23  1.1801E+002
571.28  1.1781E+002
571.33  1.2581E+002
571.38  1.3107E+002
571.43  1.2554E+002
571.48  1.1214E+002
571.53  9.8873E+001
571.58  9.5140E+001
571.63  9.7540E+001
571.68  1.0447E+002
571.73  1.1694E+002
571.78  1.2841E+002
571.83  1.3107E+002
571.88  1.3247E+002
571.93  1.3247E+002
571.98  1.2587E+002
572.03  1.2114E+002
572.08  1.1614E+002
572.13  1.1107E+002
572.18  1.1074E+002
572.23  1.1787E+002
572.28  1.2407E+002
572.33  1.2161E+002
572.38  1.1654E+002
572.43  1.2087E+002
572.48  1.2261E+002
572.53  1.2427E+002
572.58  1.2161E+002
572.63  1.1961E+002
572.68  1.1741E+002
572.73  1.2021E+002
572.78  1.2214E+002
572.83  1.3747E+002
572.88  1.4141E+002
572.93  1.2767E+002
572.98  1.0974E+002
573.03  9.4940E+001
573.08  8.3673E+001
573.13  8.6740E+001
573.18  9.1740E+001
573.23  9.7673E+001
573.28  1.0854E+002
573.33  1.1421E+002
573.38  1.2134E+002
573.43  1.3654E+002
573.48  1.4994E+002
573.53  1.5274E+002
573.58  1.5467E+002
573.63  1.4787E+002
573.68  1.4274E+002
573.73  1.4147E+002
573.78  1.3747E+002
573.83  1.3114E+002
573.88  1.3294E+002
573.93  2.2761E+002
573.98  3.0927E+002
574.03  3.4207E+002
574.08  3.5561E+002
574.13  3.5954E+002
574.18  2.6727E+002
574.23  1.8541E+002
574.28  1.5154E+002
574.33  1.3634E+002
574.38  1.2227E+002
574.43  1.1194E+002
574.48  1.1087E+002
574.53  1.1921E+002
574.58  1.3307E+002
574.63  1.5107E+002
574.68  1.6487E+002
574.73  1.6947E+002
574.78  1.6254E+002
574.83  1.4507E+002
574.88  1.3367E+002
574.93  1.2627E+002
574.98  1.2094E+002
575.03  1.1647E+002
575.08  1.1401E+002
575.13  1.1187E+002
575.18  1.0674E+002
575.23  9.2806E+001
575.28  9.0340E+001
575.33  1.0227E+002
575.38  1.0954E+002
575.43  1.0867E+002
575.48  1.1374E+002
575.53  1.1667E+002
575.58  1.0927E+002
575.63  1.0841E+002
575.68  1.1154E+002
575.73  1.1681E+002
575.78  1.1894E+002
575.83  1.2587E+002
575.88  1.2334E+002
575.93  1.2507E+002
575.98  1.2541E+002
576.03  1.2361E+002
576.08  1.1687E+002
576.13  1.0607E+002
576.18  1.0061E+002
576.23  9.9207E+001
576.28  9.9873E+001
576.33  1.0654E+002
576.38  1.2241E+002
576.43  1.3174E+002
576.48  1.3861E+002
576.53  1.4261E+002
576.58  1.4214E+002
576.63  1.4514E+002
576.68  1.5007E+002
576.73  1.4834E+002
576.78  1.4934E+002
576.83  1.4314E+002
576.88  1.3347E+002
576.93  1.2541E+002
576.98  1.1914E+002
577.03  1.1367E+002
577.08  1.1381E+002
577.13  1.0961E+002
577.18  1.1007E+002
577.23  1.1521E+002
577.28  1.1647E+002
577.33  1.1447E+002
577.38  1.1694E+002
577.43  1.1101E+002
577.48  9.9340E+001
577.53  9.2540E+001
577.58  9.3340E+001
577.63  9.2740E+001
577.68  9.6407E+001
577.73  1.0214E+002
577.78  1.0514E+002
577.83  1.0814E+002
577.88  1.1161E+002
577.93  1.1361E+002
577.98  1.1167E+002
578.03  1.1361E+002
578.08  1.1507E+002
578.13  1.1307E+002
578.18  1.1107E+002
578.23  1.1081E+002
578.28  1.0541E+002
578.33  1.0327E+002
578.38  1.0194E+002
578.43  1.0487E+002
578.48  1.1074E+002
578.53  1.1101E+002
578.58  9.6273E+001
578.63  8.7273E+001
578.68  8.2007E+001
578.73  8.0340E+001
578.78  8.4073E+001
578.83  9.7273E+001
578.88  9.7207E+001
578.93  8.6007E+001
578.98  8.2473E+001
579.03  8.4607E+001
579.08  8.6740E+001
579.13  9.2340E+001
579.18  1.0567E+002
579.23  1.1761E+002
579.28  1.1827E+002
579.33  1.1794E+002
579.38  1.2747E+002
579.43  1.3807E+002
579.48  1.2834E+002
579.53  1.2081E+002
579.58  1.1341E+002
579.63  1.0054E+002
579.68  8.7540E+001
579.73  9.2873E+001
579.78  1.0034E+002
579.83  1.0321E+002
579.88  9.8940E+001
579.93  8.2473E+001
579.98  6.8340E+001
580.03  6.2607E+001
580.08  6.8740E+001
580.13  8.8473E+001
580.18  1.1574E+002
580.23  1.3467E+002
580.28  1.4314E+002
580.33  1.3794E+002
580.38  1.2554E+002
580.43  1.1814E+002
580.48  1.0841E+002
580.52  1.0054E+002
580.57  1.0001E+002
580.62  1.0594E+002
580.67  1.1127E+002
580.72  1.1547E+002
580.77  1.2067E+002
580.82  1.2734E+002
580.87  1.2667E+002
580.92  1.1594E+002
580.97  1.1007E+002
581.02  1.1001E+002
581.07  1.0401E+002
581.12  1.0121E+002
581.17  1.0881E+002
581.22  1.2114E+002
581.27  1.3081E+002
581.32  1.4067E+002
581.37  1.3747E+002
581.42  1.2601E+002
581.47  1.1081E+002
581.52  1.0107E+002
581.57  9.9206E+001
581.62  1.0974E+002
581.67  1.1874E+002
581.72  1.2441E+002
581.77  1.2807E+002
581.82  1.3014E+002
581.87  1.2581E+002
581.92  1.2914E+002
581.97  1.2494E+002
582.02  1.1581E+002
582.07  1.0447E+002
582.12  9.6206E+001
582.17  8.2806E+001
582.22  8.2540E+001
582.27  9.1273E+001
582.32  9.8273E+001
582.37  1.0734E+002
582.42  1.1554E+002
582.47  1.2314E+002
582.52  1.2487E+002
582.57  1.3187E+002
582.62  1.3401E+002
582.67  1.3994E+002
582.72  1.4367E+002
582.77  1.3807E+002
582.82  1.2541E+002
582.87  1.3027E+002
582.92  1.2794E+002
582.97  1.1641E+002
583.02  1.0954E+002
583.07  1.0641E+002
583.12  9.6940E+001
583.17  9.9607E+001
583.22  1.0781E+002
583.27  1.1127E+002
583.32  1.1141E+002
583.37  1.0647E+002
583.42  9.7873E+001
583.47  9.4340E+001
583.52  1.0407E+002
583.57  1.2081E+002
583.62  1.3501E+002
583.67  1.4207E+002
583.72  1.4507E+002
583.77  1.4954E+002
583.82  1.4774E+002
583.87  1.4241E+002
583.92  1.4147E+002
583.97  1.4187E+002
584.02  1.3347E+002
584.07  1.2587E+002
584.12  1.1514E+002
584.17  9.8740E+001
584.22  9.0073E+001
584.27  7.6806E+001
584.32  6.6940E+001
584.37  7.9540E+001
584.42  1.0154E+002
584.46  1.0741E+002
584.51  1.1567E+002
584.56  1.2374E+002
584.61  1.2087E+002
584.66  1.1741E+002
584.71  1.2121E+002
584.76  1.2541E+002
584.81  1.2527E+002
584.86  1.3074E+002
584.91  1.3267E+002
584.96  1.3241E+002
585.01  1.3147E+002
585.06  1.2841E+002
585.11  1.2534E+002
585.16  1.2134E+002
585.21  1.1754E+002
585.26  1.1807E+002
585.31  1.2607E+002
585.36  1.2614E+002
585.41  1.2547E+002
585.46  1.3007E+002
585.51  1.3327E+002
585.56  1.3414E+002
585.61  1.3307E+002
585.66  1.1721E+002
585.71  9.8740E+001
585.76  9.6407E+001
585.81  1.0727E+002
585.86  1.1867E+002
585.91  1.4361E+002
585.96  1.6261E+002
586.01  1.6134E+002
586.06  1.5127E+002
586.11  1.4387E+002
586.16  1.3674E+002
586.21  1.3307E+002
586.26  1.3054E+002
586.31  1.2247E+002
586.36  1.1694E+002
586.41  1.1567E+002
586.46  1.1774E+002
586.51  1.2614E+002
586.56  1.3021E+002
586.61  1.3041E+002
586.66  1.2354E+002
586.71  1.1547E+002
586.76  1.0481E+002
586.81  1.0361E+002
586.86  1.0867E+002
586.91  1.2027E+002
586.96  1.3081E+002
587.01  1.4321E+002
587.06  1.4881E+002
587.10  1.4754E+002
587.15  1.4621E+002
587.20  1.4021E+002
587.25  1.3107E+002
587.30  1.2087E+002
587.35  1.1174E+002
587.40  1.0254E+002
587.45  1.0114E+002
587.50  1.0654E+002
587.55  1.1534E+002
587.60  1.2261E+002
587.65  1.2687E+002
587.70  1.3094E+002
587.75  1.2754E+002
587.80  1.2074E+002
587.85  1.0787E+002
587.90  8.9140E+001
587.95  7.7806E+001
588.00  7.8207E+001
588.05  8.7873E+001
588.10  1.0734E+002
588.15  1.3154E+002
588.20  1.3354E+002
588.25  1.2447E+002
588.30  1.2007E+002
588.35  1.1601E+002
588.40  1.1454E+002
588.45  1.2741E+002
588.50  1.4454E+002
588.55  1.4434E+002
588.60  1.4041E+002
588.65  1.4521E+002
588.70  1.4967E+002
588.75  1.4981E+002
588.80  1.5154E+002
588.85  1.4561E+002
588.90  1.3347E+002
588.95  1.2034E+002
589.00  1.0767E+002
589.05  1.0054E+002
589.10  1.0241E+002
589.14  1.1254E+002
589.19  1.2581E+002
589.24  1.3287E+002
589.29  1.3401E+002
589.34  1.3607E+002
589.39  1.3334E+002
589.44  1.3007E+002
589.49  1.3167E+002
589.54  1.3021E+002
589.59  1.2947E+002
589.64  1.1947E+002
589.69  1.0907E+002
589.74  1.1107E+002
589.79  1.2301E+002
589.84  1.2587E+002
589.89  1.2814E+002
589.94  1.2894E+002
589.99  1.2207E+002
590.04  1.1214E+002
590.09  1.0507E+002
590.14  1.0614E+002
590.19  1.0947E+002
590.24  1.1347E+002
590.29  1.2034E+002
590.34  1.2941E+002
590.39  1.3614E+002
590.44  1.3834E+002
590.49  1.3754E+002
590.54  1.2741E+002
590.59  1.1234E+002
590.64  1.0014E+002
590.69  9.2340E+001
590.74  8.7473E+001
590.79  9.3007E+001
590.84  1.0541E+002
590.89  1.1587E+002
590.93  1.1781E+002
590.98  1.1621E+002
591.03  1.1407E+002
591.08  1.1287E+002
591.13  1.0687E+002
591.18  1.0534E+002
591.23  1.0447E+002
591.28  9.8607E+001
591.33  8.2673E+001
591.38  7.5007E+001
591.43  7.9873E+001
591.48  8.6407E+001
591.53  9.2806E+001
591.58  1.0574E+002
591.63  1.1841E+002
591.68  1.1347E+002
591.73  1.0321E+002
591.78  9.9873E+001
591.83  1.0007E+002
591.88  9.5607E+001
591.93  9.7940E+001
591.98  1.0481E+002
592.03  1.0227E+002
592.08  9.9073E+001
592.13  1.0127E+002
592.18  1.0341E+002
592.23  1.0527E+002
592.28  1.0907E+002
592.33  1.0601E+002
592.38  1.0107E+002
592.43  1.0001E+002
592.47  1.0527E+002
592.52  1.1401E+002
592.57  1.2827E+002
592.62  1.4054E+002
592.67  1.3594E+002
592.72  1.2274E+002
592.77  1.1581E+002
592.82  1.1007E+002
592.87  1.0547E+002
592.92  1.1101E+002
592.97  1.2194E+002
593.02  1.2621E+002
593.07  1.3521E+002
593.12  1.3814E+002
593.17  1.3967E+002
593.22  1.3021E+002
593.27  1.2547E+002
593.32  1.1214E+002
593.37  9.9940E+001
593.42  9.7607E+001
593.47  1.0201E+002
593.52  9.2806E+001
593.57  8.4740E+001
593.62  7.9873E+001
593.67  7.5740E+001
593.72  6.9340E+001
593.77  7.4673E+001
593.82  8.8807E+001
593.87  1.0387E+002
593.91  1.1281E+002
593.96  1.1914E+002
594.01  1.2374E+002
594.06  1.1441E+002
594.11  1.0954E+002
594.16  1.0887E+002
594.21  1.1154E+002
594.26  1.1407E+002
594.31  1.1934E+002
594.36  1.1227E+002
594.41  1.0961E+002
594.46  1.1081E+002
594.51  1.0447E+002
594.56  9.8473E+001
594.61  1.0427E+002
594.66  1.0281E+002
594.71  1.0034E+002
594.76  1.0421E+002
594.81  1.2054E+002
594.86  1.2907E+002
594.91  1.3467E+002
594.96  1.4141E+002
595.01  1.4847E+002
595.06  1.4241E+002
595.11  1.3594E+002
595.16  1.3541E+002
595.20  1.3161E+002
595.25  1.3401E+002
595.30  1.3847E+002
595.35  1.3787E+002
595.40  1.2281E+002
595.45  1.0401E+002
595.50  7.9407E+001
595.55  6.8073E+001
595.60  6.6540E+001
595.65  7.5806E+001
595.70  9.0606E+001
595.75  9.8006E+001
595.80  1.0694E+002
595.85  1.2014E+002
595.90  1.2841E+002
595.95  1.3114E+002
596.00  1.3554E+002
596.05  1.3027E+002
596.10  1.1801E+002
596.15  1.1274E+002
596.20  1.2087E+002
596.25  1.2894E+002
596.30  1.2554E+002
596.35  1.2254E+002
596.39  1.2367E+002
596.44  1.2087E+002
596.49  1.0901E+002
596.54  1.0134E+002
596.59  1.0361E+002
596.64  9.7407E+001
596.69  8.9940E+001
596.74  9.4473E+001
596.79  1.0247E+002
596.84  9.4940E+001
596.89  8.6740E+001
596.94  8.4740E+001
596.99  8.3340E+001
597.04  8.2007E+001
597.09  8.1407E+001
597.14  8.9807E+001
597.19  8.5940E+001
597.24  8.7940E+001
597.29  9.3607E+001
597.34  1.0294E+002
597.39  1.1194E+002
597.44  1.2327E+002
597.49  1.2741E+002
597.53  1.3334E+002
597.58  1.3554E+002
597.63  1.1607E+002
597.68  1.0001E+002
597.73  9.6673E+001
597.78  9.0940E+001
597.83  1.0054E+002
597.88  1.2161E+002
597.93  1.2807E+002
597.98  1.2687E+002
598.03  1.2754E+002
598.08  1.2521E+002
598.13  1.2547E+002
598.18  1.3141E+002
598.23  1.3161E+002
598.28  1.1574E+002
598.33  9.6940E+001
598.38  9.0607E+001
598.43  8.8873E+001
598.48  9.1473E+001
598.53  1.0627E+002
598.57  1.2547E+002
598.62  1.3574E+002
598.67  1.4281E+002
598.72  1.4834E+002
598.77  1.5147E+002
598.82  1.3914E+002
598.87  1.2514E+002
598.92  1.2441E+002
598.97  1.3187E+002
599.02  1.3014E+002
599.07  1.3007E+002
599.12  1.3654E+002
599.17  1.3614E+002
599.22  1.2907E+002
599.27  1.3121E+002
599.32  1.3047E+002
599.37  1.2261E+002
599.42  1.1867E+002
599.47  1.1501E+002
599.52  1.1574E+002
599.57  1.2187E+002
599.61  1.2447E+002
599.66  1.1814E+002
599.71  1.1567E+002
599.76  1.0494E+002
599.81  1.0267E+002
599.86  1.0287E+002
599.91  1.0981E+002
599.96  1.0901E+002
600.01  1.1454E+002
600.06  1.2154E+002
600.11  1.2541E+002
600.16  1.2194E+002
600.21  1.1774E+002
600.26  1.1381E+002
600.31  1.0701E+002
600.36  1.0481E+002
600.41  1.0814E+002
600.46  1.0687E+002
600.51  1.0681E+002
600.55  1.0574E+002
600.60  9.9273E+001
600.65  9.0940E+001
600.70  9.4540E+001
600.75  9.4740E+001
600.80  9.6273E+001
600.85  1.0727E+002
600.90  1.1394E+002
600.95  1.4127E+002
601.00  1.1327E+002
601.05  1.1327E+002
601.10  1.1327E+002
